Loop Time (ms)	IR (16 bit)	Force (N)
250.000	0.000	0.000
3238.000	0.000	0.000
48.000	0.000	0.000
22.000	0.000	0.000
20.000	0.000	0.000
22.000	0.000	0.000
20.000	0.000	0.000
20.000	0.000	0.000
24.000	0.000	0.000
20.000	0.000	0.000
20.000	0.000	0.000
24.000	0.000	0.000
20.000	0.000	0.000
20.000	0.000	0.000
23.000	0.000	0.000
20.000	0.000	0.000
20.000	0.000	0.000
41.000	0.000	0.000
20.000	0.000	0.000
21.000	0.000	0.000
23.000	0.000	0.000
20.000	0.000	0.000
20.000	0.000	0.000
24.000	0.000	0.000
21.000	0.000	0.000
20.000	0.000	0.000
22.000	0.000	0.000
20.000	0.000	0.000
23.000	0.000	0.000
21.000	0.000	0.000
20.000	0.000	0.000
20.000	0.000	0.000
24.000	0.000	0.000
20.000	0.000	0.000
20.000	0.000	0.000
25.000	0.000	0.000
20.000	0.000	0.000
20.000	0.000	0.000
23.000	0.000	0.000
20.000	0.000	0.000
22.000	0.000	0.000
23.000	0.000	0.000
20.000	0.000	0.000
20.000	0.000	0.000
23.000	0.000	0.000
21.000	0.000	0.000
20.000	0.000	0.000
24.000	0.000	0.000
20.000	0.000	0.000
21.000	0.000	0.000
23.000	0.000	0.000
21.000	0.000	0.000
21.000	0.000	0.000
37.000	0.000	0.000
21.000	0.000	0.000
21.000	0.000	0.000
27.000	0.000	0.000
20.000	0.000	0.000
20.000	0.000	0.000
20.000	0.000	0.000
20.000	0.000	0.000
23.000	0.000	0.000
21.000	0.000	0.000
20.000	0.000	0.000
21.000	0.000	0.000
22.000	0.000	0.000
20.000	0.000	0.000
20.000	0.000	0.000
24.000	0.000	0.000
22.000	0.000	0.000
22.000	0.000	0.000
21.000	0.000	0.000
20.000	7907.000	1567.040
43.000	7911.000	1567.040
64.000	7908.000	1567.040
63.000	7908.000	1567.170
64.000	7907.000	1567.040
68.000	7907.000	1567.170
76.000	7910.000	1567.040
64.000	7910.000	1567.040
65.000	7902.000	1567.170
63.000	7909.000	1567.040
64.000	7906.000	1567.040
65.000	7910.000	1567.170
63.000	7911.000	1567.170
64.000	7910.000	1567.170
64.000	7910.000	1567.170
64.000	7908.000	1567.040
64.000	7914.000	1567.170
64.000	7905.000	1567.170
79.000	7912.000	1567.040
65.000	7907.000	1567.170
64.000	7907.000	1567.040
64.000	7916.000	1567.170
63.000	7910.000	1567.170
66.000	7911.000	1567.170
63.000	7909.000	1567.040
64.000	7909.000	1567.170
63.000	7911.000	1567.040
65.000	7910.000	1567.170
63.000	7908.000	1567.040
65.000	7910.000	1567.170
79.000	7911.000	1567.170
64.000	7914.000	1567.040
64.000	7909.000	1567.170
64.000	7909.000	1567.040
64.000	7911.000	1567.040
64.000	7909.000	1567.040
64.000	7909.000	1567.170
64.000	7910.000	1567.040
64.000	7910.000	1567.040
64.000	7912.000	1567.170
63.000	7910.000	1567.040
65.000	7910.000	1567.040
80.000	7912.000	1567.040
64.000	7909.000	1567.040
63.000	7910.000	1567.170
64.000	7909.000	1567.170
65.000	7907.000	1567.040
64.000	7908.000	1567.040
64.000	7909.000	1567.040
64.000	7906.000	1567.170
63.000	7908.000	1567.040
65.000	7911.000	1567.170
63.000	7914.000	1567.040
64.000	7913.000	1567.040
80.000	7911.000	1567.170
65.000	7911.000	1567.170
63.000	7909.000	1567.170
64.000	7913.000	1566.920
64.000	7911.000	1567.170
64.000	7915.000	1567.040
64.000	7914.000	1567.040
64.000	7913.000	1567.170
65.000	7909.000	1567.170
63.000	7910.000	1567.170
64.000	7911.000	1567.040
64.000	7910.000	1567.040
80.000	7917.000	1567.170
64.000	7909.000	1567.040
64.000	7913.000	1567.040
63.000	7909.000	1567.040
65.000	7906.000	1567.040
63.000	7910.000	1567.040
64.000	7921.000	1567.040
65.000	7908.000	1567.170
63.000	7910.000	1567.040
64.000	7914.000	1567.040
64.000	7914.000	1567.040
64.000	7915.000	1567.170
80.000	7913.000	1567.040
64.000	7907.000	1567.170
65.000	7914.000	1567.170
63.000	7911.000	1567.170
64.000	7916.000	1567.170
64.000	7909.000	1566.920
64.000	7909.000	1567.170
64.000	7910.000	1567.170
64.000	7915.000	1567.040
64.000	7911.000	1567.170
64.000	7914.000	1567.040
64.000	7914.000	1567.040
79.000	7912.000	1567.170
65.000	7910.000	1567.170
64.000	7913.000	1567.170
63.000	7914.000	1567.040
64.000	7913.000	1567.170
65.000	7916.000	1567.170
63.000	7912.000	1567.040
64.000	7912.000	1567.040
64.000	7910.000	1567.170
65.000	7919.000	1567.040
63.000	7913.000	1567.170
64.000	7914.000	1567.170
80.000	7915.000	1567.040
65.000	7912.000	1567.170
63.000	7914.000	1567.040
64.000	7914.000	1567.170
64.000	7914.000	1567.170
64.000	7912.000	1567.040
64.000	7909.000	1567.170
64.000	7918.000	1567.040
64.000	7915.000	1567.170
64.000	7913.000	1567.040
64.000	7914.000	1567.040
64.000	7911.000	1567.170
79.000	7914.000	1567.170
64.000	7917.000	1567.170
65.000	7917.000	1567.170
64.000	7911.000	1567.040
63.000	7917.000	1567.040
65.000	7915.000	1567.170
63.000	7914.000	1567.040
65.000	7916.000	1567.040
63.000	7913.000	1567.040
64.000	7912.000	1567.040
64.000	7916.000	1567.040
64.000	7913.000	1567.040
80.000	7921.000	1567.040
64.000	7916.000	1567.170
64.000	7911.000	1567.040
64.000	7911.000	1567.170
64.000	7916.000	1567.170
64.000	7916.000	1567.170
64.000	7918.000	1567.170
64.000	7915.000	1567.040
64.000	7915.000	1567.040
64.000	7919.000	1567.170
64.000	7918.000	1567.040
64.000	7916.000	1567.040
80.000	7914.000	1567.040
64.000	7918.000	1567.170
64.000	7917.000	1567.170
63.000	7913.000	1567.170
65.000	7915.000	1566.920
64.000	7923.000	1567.040
63.000	7936.000	1567.170
65.000	7942.000	1567.170
64.000	7948.000	1567.170
63.000	7959.000	1567.040
64.000	7963.000	1567.040
64.000	7976.000	1567.170
80.000	7987.000	1567.040
64.000	7994.000	1567.040
64.000	8010.000	1567.040
64.000	8020.000	1567.170
64.000	8034.000	1567.040
64.000	8046.000	1567.170
64.000	8056.000	1567.040
64.000	8068.000	1567.040
64.000	8078.000	1567.040
63.000	8091.000	1567.040
65.000	8105.000	1567.040
64.000	8119.000	1567.170
80.000	8138.000	1567.040
64.000	8153.000	1567.040
63.000	8160.000	1567.040
64.000	8181.000	1567.040
64.000	8198.000	1567.170
64.000	8208.000	1567.040
65.000	8230.000	1567.170
63.000	8246.000	1567.170
64.000	8261.000	1567.170
64.000	8279.000	1567.170
65.000	8306.000	1567.170
80.000	8320.000	1567.040
63.000	8339.000	1567.040
64.000	8360.000	1567.040
65.000	8383.000	1567.170
63.000	8409.000	1567.040
64.000	8429.000	1567.040
64.000	8454.000	1567.040
64.000	8480.000	1567.170
64.000	8505.000	1567.170
64.000	8533.000	1567.040
64.000	8563.000	1567.170
64.000	8589.000	1567.040
80.000	8621.000	1567.170
64.000	8659.000	1567.040
64.000	8693.000	1567.040
64.000	8721.000	1567.170
63.000	8771.000	1567.040
65.000	8816.000	1567.170
64.000	8866.000	1567.170
63.000	8913.000	1567.040
65.000	8964.000	1567.170
64.000	9028.000	1567.170
64.000	9070.000	1567.170
64.000	9138.000	1567.170
80.000	9207.000	1567.170
63.000	9273.000	1567.170
64.000	9339.000	1567.300
64.000	9437.000	1567.300
64.000	9638.000	1567.300
64.000	9764.000	1567.300
64.000	9900.000	1567.430
64.000	10057.000	1567.550
64.000	10185.000	1567.680
63.000	10291.000	1567.680
65.000	10384.000	1567.810
63.000	10462.000	1567.930
81.000	10552.000	1567.810
63.000	10628.000	1568.060
65.000	10652.000	1568.060
63.000	10667.000	1568.320
64.000	10654.000	1568.440
64.000	10644.000	1568.700
65.000	10664.000	1568.830
63.000	10700.000	1568.950
65.000	10731.000	1569.210
63.000	10765.000	1569.340
64.000	10794.000	1569.590
64.000	10852.000	1569.840
80.000	10918.000	1569.840
64.000	11028.000	1570.230
64.000	11190.000	1570.480
64.000	11427.000	1570.610
64.000	11709.000	1570.860
64.000	11981.000	1571.120
64.000	12215.000	1571.250
64.000	12440.000	1571.500
63.000	12582.000	1571.880
65.000	12757.000	1571.880
63.000	12952.000	1572.140
64.000	13202.000	1572.520
80.000	13442.000	1572.900
64.000	13542.000	1573.160
64.000	13640.000	1573.410
64.000	13822.000	1573.790
65.000	13981.000	1574.170
63.000	14245.000	1574.430
64.000	14458.000	1574.940
64.000	14670.000	1575.320
65.000	15086.000	1575.700
63.000	15309.000	1576.210
65.000	15544.000	1576.590
63.000	15796.000	1577.100
81.000	16039.000	1577.100
63.000	15900.000	1575.700
64.000	15731.000	1574.430
64.000	15555.000	1573.670
65.000	15368.000	1572.900
63.000	15197.000	1572.260
64.000	15038.000	1571.880
64.000	14859.000	1571.250
64.000	14694.000	1570.860
64.000	14525.000	1570.610
64.000	14361.000	1570.230
64.000	14193.000	1569.970
80.000	14037.000	1569.590
63.000	13890.000	1569.590
64.000	13729.000	1569.210
64.000	13571.000	1569.080
65.000	13388.000	1568.830
63.000	13188.000	1568.700
64.000	13029.000	1568.570
64.000	12869.000	1568.440
65.000	12714.000	1568.320
63.000	12562.000	1568.190
64.000	12405.000	1568.060
65.000	12290.000	1568.060
79.000	12230.000	1567.930
64.000	12156.000	1567.810
64.000	12239.000	1567.810
64.000	12267.000	1567.810
64.000	12250.000	1567.810
64.000	12231.000	1567.680
64.000	12204.000	1567.680
64.000	12144.000	1567.680
64.000	12022.000	1567.550
64.000	11877.000	1567.430
64.000	11701.000	1567.430
63.000	11491.000	1567.430
81.000	11285.000	1567.300
63.000	11060.000	1567.430
64.000	10881.000	1567.430
65.000	10786.000	1567.300
63.000	10675.000	1567.170
65.000	10587.000	1567.170
64.000	10471.000	1567.170
63.000	10426.000	1567.300
65.000	10334.000	1567.170
64.000	10246.000	1567.170
64.000	10142.000	1567.170
63.000	10058.000	1567.040
80.000	9972.000	1567.040
64.000	9895.000	1567.040
64.000	9827.000	1567.040
64.000	9769.000	1567.170
64.000	9716.000	1567.170
64.000	9666.000	1567.170
64.000	9627.000	1567.040
64.000	9577.000	1567.170
63.000	9543.000	1567.170
65.000	9508.000	1567.170
64.000	9478.000	1567.170
63.000	9441.000	1567.040
80.000	9406.000	1567.040
64.000	9386.000	1567.040
65.000	9355.000	1567.170
64.000	9323.000	1567.170
64.000	9295.000	1567.170
64.000	9275.000	1567.170
64.000	9248.000	1567.170
63.000	9229.000	1567.170
65.000	9204.000	1567.040
64.000	9176.000	1567.040
64.000	9157.000	1567.170
64.000	9133.000	1567.040
79.000	9117.000	1567.170
64.000	9098.000	1567.170
64.000	9079.000	1567.170
64.000	9056.000	1567.040
64.000	9036.000	1567.170
64.000	9025.000	1567.040
64.000	9006.000	1567.040
64.000	8986.000	1567.040
64.000	8965.000	1567.170
64.000	8960.000	1567.170
63.000	8947.000	1567.170
65.000	8931.000	1567.170
80.000	8914.000	1567.170
64.000	8904.000	1567.170
64.000	8889.000	1567.170
64.000	8876.000	1567.040
63.000	8863.000	1567.040
65.000	8848.000	1567.170
63.000	8838.000	1567.170
65.000	8830.000	1567.170
64.000	8818.000	1567.170
63.000	8804.000	1567.170
64.000	8800.000	1567.170
64.000	8786.000	1567.040
80.000	8782.000	1567.040
64.000	8763.000	1567.170
64.000	8757.000	1567.040
64.000	8751.000	1567.040
65.000	8738.000	1567.170
62.000	8734.000	1567.170
65.000	8724.000	1567.170
63.000	8715.000	1567.040
64.000	8712.000	1567.170
64.000	8725.000	1567.170
65.000	8716.000	1567.170
64.000	8716.000	1567.040
79.000	8712.000	1567.170
64.000	8719.000	1567.040
64.000	8721.000	1567.040
65.000	8720.000	1567.170
63.000	8717.000	1567.040
65.000	8722.000	1567.170
64.000	8716.000	1567.170
64.000	8719.000	1567.040
63.000	8722.000	1567.040
65.000	8723.000	1567.040
64.000	8717.000	1567.170
63.000	8716.000	1567.040
80.000	8719.000	1567.170
64.000	8715.000	1567.170
64.000	8721.000	1567.040
64.000	8721.000	1567.170
64.000	8722.000	1567.170
64.000	8718.000	1567.040
64.000	8718.000	1567.170
64.000	8721.000	1567.170
63.000	8719.000	1567.170
64.000	8713.000	1567.170
64.000	8716.000	1567.040
64.000	8723.000	1567.040
80.000	8720.000	1567.170
64.000	8719.000	1567.170
64.000	8715.000	1567.040
64.000	8721.000	1567.170
64.000	8709.000	1567.300
64.000	8711.000	1567.040
64.000	8709.000	1567.040
64.000	8709.000	1567.170
65.000	8713.000	1567.040
63.000	8718.000	1567.040
64.000	8714.000	1567.040
64.000	8709.000	1567.040
81.000	8718.000	1567.040
63.000	8711.000	1567.170
64.000	8722.000	1567.040
64.000	8716.000	1567.040
64.000	8718.000	1567.170
64.000	8714.000	1567.040
64.000	8714.000	1567.040
64.000	8721.000	1567.170
63.000	8714.000	1567.170
65.000	8710.000	1567.170
63.000	8710.000	1567.170
65.000	8717.000	1567.170
80.000	8717.000	1567.170
63.000	8716.000	1567.170
65.000	8714.000	1567.170
64.000	8716.000	1567.040
63.000	8711.000	1567.170
64.000	8705.000	1567.040
64.000	8720.000	1567.170
64.000	8710.000	1567.170
64.000	8714.000	1567.040
64.000	8719.000	1567.040
64.000	8717.000	1567.170
64.000	8710.000	1567.040
80.000	8709.000	1567.040
64.000	8715.000	1567.170
64.000	8710.000	1567.170
64.000	8718.000	1567.040
64.000	8714.000	1567.170
63.000	8711.000	1567.170
65.000	8716.000	1567.040
64.000	8709.000	1567.170
63.000	8710.000	1567.170
64.000	8709.000	1567.170
65.000	8714.000	1567.300
64.000	8708.000	1567.170
79.000	8710.000	1567.170
64.000	8713.000	1567.040
65.000	8714.000	1567.170
64.000	8706.000	1567.170
63.000	8719.000	1567.170
65.000	8703.000	1567.170
63.000	8719.000	1567.040
65.000	8710.000	1567.170
63.000	8712.000	1567.170
64.000	8718.000	1567.040
64.000	8712.000	1567.040
64.000	8714.000	1567.170
80.000	8713.000	1567.170
64.000	8707.000	1567.170
64.000	8707.000	1567.170
64.000	8710.000	1567.040
64.000	8716.000	1567.170
64.000	8711.000	1567.170
64.000	8710.000	1567.170
64.000	8713.000	1567.170
63.000	8722.000	1567.040
65.000	8729.000	1567.170
64.000	8731.000	1567.170
63.000	8741.000	1567.170
81.000	8748.000	1567.300
63.000	8769.000	1567.040
65.000	8771.000	1567.040
64.000	8783.000	1567.040
63.000	8790.000	1567.040
64.000	8794.000	1567.170
64.000	8813.000	1567.040
64.000	8827.000	1567.170
64.000	8832.000	1567.040
64.000	8844.000	1567.170
64.000	8855.000	1567.170
64.000	8871.000	1567.170
80.000	8884.000	1567.170
64.000	8901.000	1567.170
64.000	8903.000	1567.170
64.000	8924.000	1567.040
64.000	8942.000	1567.170
64.000	8947.000	1567.170
64.000	8968.000	1567.170
63.000	8978.000	1567.170
64.000	8993.000	1567.170
65.000	9013.000	1567.170
64.000	9037.000	1567.170
64.000	9059.000	1567.040
80.000	9062.000	1567.170
63.000	9095.000	1567.170
65.000	9113.000	1567.170
64.000	9133.000	1567.170
63.000	9142.000	1567.170
64.000	9169.000	1567.040
64.000	9194.000	1567.170
64.000	9221.000	1567.170
64.000	9242.000	1567.170
64.000	9269.000	1567.040
64.000	9295.000	1567.170
64.000	9321.000	1567.170
81.000	9350.000	1567.170
63.000	9380.000	1567.170
64.000	9414.000	1567.170
64.000	9447.000	1567.170
64.000	9480.000	1567.170
64.000	9513.000	1567.040
64.000	9557.000	1567.040
64.000	9611.000	1567.040
63.000	9653.000	1567.170
64.000	9703.000	1567.170
65.000	9754.000	1567.040
64.000	9806.000	1567.170
79.000	9881.000	1567.170
64.000	9930.000	1567.170
64.000	9996.000	1567.170
65.000	10072.000	1567.170
63.000	10137.000	1567.300
64.000	10208.000	1567.300
65.000	10289.000	1567.300
63.000	10355.000	1567.300
64.000	10436.000	1567.300
65.000	10523.000	1567.430
63.000	10633.000	1567.550
64.000	10745.000	1567.550
80.000	10848.000	1567.680
64.000	10949.000	1567.810
64.000	11053.000	1567.810
64.000	11141.000	1568.060
64.000	11205.000	1568.060
64.000	11242.000	1568.320
64.000	11259.000	1568.320
64.000	11260.000	1568.700
63.000	11271.000	1568.700
65.000	11267.000	1568.830
64.000	11277.000	1569.080
63.000	11274.000	1569.340
81.000	11288.000	1569.460
63.000	11307.000	1569.590
64.000	11334.000	1569.840
64.000	11393.000	1570.230
65.000	11487.000	1570.230
64.000	11674.000	1570.480
63.000	11905.000	1570.610
64.000	12182.000	1570.990
64.000	12451.000	1571.120
65.000	12708.000	1571.370
63.000	12924.000	1571.630
64.000	13115.000	1571.880
80.000	13326.000	1572.010
64.000	13542.000	1572.390
63.000	13747.000	1572.770
65.000	13960.000	1572.900
64.000	14163.000	1573.280
63.000	14264.000	1573.670
65.000	14452.000	1573.790
64.000	14696.000	1574.170
64.000	14860.000	1574.680
64.000	15107.000	1574.940
63.000	15364.000	1575.320
64.000	15534.000	1575.830
81.000	15786.000	1576.340
63.000	15973.000	1576.980
65.000	16036.000	1577.490
63.000	15971.000	1576.080
64.000	15815.000	1574.810
64.000	15648.000	1573.920
64.000	15486.000	1573.160
64.000	15310.000	1572.520
64.000	15139.000	1572.010
64.000	14973.000	1571.630
64.000	14811.000	1571.120
64.000	14671.000	1570.740
80.000	14511.000	1570.350
63.000	14353.000	1570.100
64.000	14210.000	1569.840
64.000	14082.000	1569.590
65.000	13964.000	1569.210
64.000	13856.000	1569.210
63.000	13750.000	1568.950
65.000	13611.000	1568.830
63.000	13467.000	1568.570
65.000	13345.000	1568.440
64.000	13205.000	1568.190
64.000	13092.000	1568.190
80.000	13002.000	1568.190
63.000	12888.000	1567.930
64.000	12808.000	1568.190
64.000	12755.000	1567.810
65.000	12686.000	1567.810
63.000	12633.000	1567.680
64.000	12612.000	1567.810
64.000	12729.000	1567.930
65.000	12728.000	1567.680
63.000	12840.000	1567.680
64.000	12902.000	1567.550
64.000	12847.000	1567.550
80.000	12741.000	1567.550
63.000	12585.000	1567.430
64.000	12371.000	1567.430
65.000	12136.000	1567.300
64.000	11920.000	1567.300
64.000	11727.000	1567.300
64.000	11540.000	1567.300
64.000	11362.000	1567.300
63.000	11195.000	1567.170
65.000	11058.000	1567.300
64.000	10928.000	1567.040
63.000	10798.000	1567.040
81.000	10675.000	1567.170
64.000	10578.000	1567.170
63.000	10490.000	1567.170
64.000	10409.000	1567.170
64.000	10359.000	1567.170
64.000	10304.000	1567.170
64.000	10249.000	1567.040
64.000	10190.000	1567.040
64.000	10144.000	1567.040
64.000	10094.000	1567.170
64.000	10051.000	1567.170
64.000	10007.000	1567.170
80.000	9971.000	1567.040
64.000	9942.000	1567.170
64.000	9904.000	1567.040
64.000	9864.000	1567.040
63.000	9830.000	1567.300
65.000	9802.000	1567.170
64.000	9775.000	1567.170
64.000	9731.000	1567.170
63.000	9711.000	1567.170
64.000	9686.000	1567.170
64.000	9659.000	1567.170
65.000	9636.000	1567.040
79.000	9619.000	1567.170
64.000	9592.000	1567.040
64.000	9568.000	1567.170
64.000	9550.000	1567.170
64.000	9523.000	1567.170
64.000	9500.000	1567.300
66.000	9481.000	1567.170
62.000	9461.000	1567.170
64.000	9453.000	1567.170
64.000	9424.000	1567.040
64.000	9404.000	1567.170
64.000	9392.000	1567.040
80.000	9374.000	1567.040
64.000	9355.000	1567.170
64.000	9342.000	1567.040
64.000	9328.000	1567.040
64.000	9319.000	1567.170
64.000	9298.000	1567.040
63.000	9282.000	1567.040
64.000	9270.000	1567.170
65.000	9257.000	1567.040
63.000	9252.000	1567.170
64.000	9233.000	1567.040
64.000	9222.000	1567.170
80.000	9211.000	1567.170
64.000	9195.000	1567.170
64.000	9182.000	1567.170
65.000	9171.000	1567.040
63.000	9165.000	1567.170
65.000	9155.000	1567.040
63.000	9150.000	1567.170
64.000	9135.000	1567.170
64.000	9118.000	1567.170
64.000	9110.000	1567.170
64.000	9103.000	1567.040
64.000	9111.000	1567.170
80.000	9108.000	1567.170
64.000	9108.000	1567.040
64.000	9105.000	1567.170
63.000	9104.000	1567.170
65.000	9099.000	1567.170
64.000	9099.000	1567.170
63.000	9094.000	1567.170
65.000	9103.000	1567.300
64.000	9097.000	1567.170
63.000	9099.000	1567.170
64.000	9093.000	1567.300
64.000	9095.000	1567.170
81.000	9095.000	1567.170
63.000	9096.000	1567.170
65.000	9094.000	1567.300
63.000	9087.000	1567.170
65.000	9082.000	1567.040
63.000	9081.000	1567.040
64.000	9084.000	1567.040
64.000	9081.000	1567.170
64.000	9083.000	1567.170
64.000	9074.000	1567.170
64.000	9080.000	1567.040
64.000	9078.000	1567.170
80.000	9069.000	1567.170
64.000	9062.000	1567.170
64.000	9061.000	1567.170
64.000	9066.000	1567.170
64.000	9053.000	1567.170
64.000	9052.000	1567.170
64.000	9046.000	1567.170
63.000	9053.000	1567.040
65.000	9037.000	1567.170
63.000	9037.000	1567.170
64.000	9041.000	1567.170
65.000	9040.000	1567.170
80.000	9039.000	1567.170
63.000	9027.000	1567.170
64.000	9030.000	1567.040
64.000	9021.000	1567.040
64.000	9022.000	1567.170
64.000	9025.000	1567.170
64.000	9005.000	1567.170
63.000	9017.000	1567.040
65.000	9005.000	1567.170
64.000	9000.000	1567.040
63.000	9000.000	1567.040
65.000	9001.000	1567.170
80.000	8995.000	1567.170
64.000	8990.000	1567.040
64.000	8982.000	1567.040
