Loop Time (ms)	IR (16 bit)	Force (N)
259.000	10688.000	1533.830
55.000	10696.000	1533.960
64.000	10694.000	1533.960
65.000	10692.000	1533.830
79.000	10691.000	1533.830
64.000	10693.000	1533.830
64.000	10696.000	1533.960
64.000	10697.000	1533.960
64.000	10694.000	1533.960
64.000	10693.000	1533.960
64.000	10696.000	1533.960
64.000	10698.000	1533.960
64.000	10692.000	1533.960
64.000	10697.000	1533.830
63.000	10698.000	1533.830
65.000	10696.000	1533.960
80.000	10694.000	1533.960
64.000	10692.000	1533.960
63.000	10694.000	1533.960
65.000	10696.000	1533.960
64.000	10694.000	1533.830
63.000	10691.000	1533.960
65.000	10696.000	1533.960
64.000	10699.000	1533.960
64.000	10694.000	1533.960
63.000	10695.000	1533.960
64.000	10696.000	1534.080
65.000	10695.000	1533.960
63.000	10695.000	1533.960
81.000	10696.000	1533.830
63.000	10695.000	1533.960
64.000	10698.000	1533.960
64.000	10693.000	1533.960
64.000	10695.000	1533.960
64.000	10694.000	1533.830
64.000	10702.000	1533.960
64.000	10696.000	1533.830
64.000	10697.000	1533.960
64.000	10693.000	1533.830
64.000	10697.000	1533.960
64.000	10695.000	1533.960
80.000	10698.000	1533.960
64.000	10694.000	1533.960
64.000	10695.000	1533.960
64.000	10697.000	1533.960
64.000	10695.000	1533.960
63.000	10695.000	1533.960
65.000	10699.000	1533.960
63.000	10696.000	1533.960
64.000	10693.000	1533.830
64.000	10694.000	1533.960
64.000	10695.000	1533.830
64.000	10698.000	1533.960
81.000	10700.000	1533.960
63.000	10697.000	1533.960
64.000	10695.000	1534.080
64.000	10695.000	1533.830
65.000	10698.000	1533.830
63.000	10693.000	1533.960
64.000	10696.000	1533.960
64.000	10696.000	1533.830
64.000	10694.000	1533.960
64.000	10696.000	1533.960
64.000	10695.000	1533.960
64.000	10694.000	1533.960
80.000	10698.000	1533.960
64.000	10699.000	1533.960
64.000	10696.000	1534.080
64.000	10696.000	1533.830
64.000	10696.000	1533.960
64.000	10695.000	1533.960
64.000	10694.000	1533.960
64.000	10697.000	1533.960
64.000	10696.000	1533.960
64.000	10699.000	1533.960
64.000	10693.000	1533.960
64.000	10698.000	1533.960
80.000	10697.000	1533.960
63.000	10695.000	1533.960
64.000	10694.000	1533.960
64.000	10699.000	1533.960
64.000	10691.000	1534.080
64.000	10698.000	1533.960
64.000	10697.000	1533.960
64.000	10699.000	1533.960
65.000	10696.000	1533.960
63.000	10700.000	1533.960
64.000	10697.000	1533.960
64.000	10696.000	1533.960
80.000	10693.000	1533.960
65.000	10699.000	1533.960
64.000	10699.000	1533.960
63.000	10699.000	1533.960
65.000	10698.000	1533.960
63.000	10699.000	1533.960
64.000	10697.000	1533.960
65.000	10693.000	1533.960
63.000	10700.000	1533.960
64.000	10698.000	1533.960
64.000	10697.000	1533.830
63.000	10697.000	1533.960
81.000	10694.000	1533.960
64.000	10698.000	1533.960
63.000	10696.000	1533.960
65.000	10692.000	1533.960
63.000	10698.000	1533.960
65.000	10696.000	1533.960
64.000	10698.000	1534.080
63.000	10698.000	1533.960
64.000	10700.000	1533.960
65.000	10698.000	1533.960
63.000	10700.000	1533.960
65.000	10695.000	1533.960
80.000	10694.000	1533.960
64.000	10693.000	1533.960
64.000	10698.000	1533.960
63.000	10697.000	1533.960
64.000	10702.000	1533.960
64.000	10696.000	1533.960
64.000	10699.000	1533.960
64.000	10698.000	1533.960
64.000	10700.000	1533.960
64.000	10698.000	1533.960
65.000	10700.000	1533.960
63.000	10698.000	1533.960
80.000	10697.000	1533.960
64.000	10697.000	1533.960
64.000	10694.000	1533.960
64.000	10699.000	1533.960
64.000	10699.000	1534.080
64.000	10695.000	1533.960
63.000	10701.000	1533.960
65.000	10695.000	1533.960
64.000	10696.000	1533.960
64.000	10696.000	1533.960
64.000	10699.000	1534.080
64.000	10698.000	1533.960
80.000	10701.000	1533.960
64.000	10697.000	1533.960
64.000	10701.000	1533.960
63.000	10697.000	1533.960
64.000	10696.000	1533.960
64.000	10697.000	1533.960
64.000	10700.000	1533.960
64.000	10698.000	1533.960
64.000	10703.000	1533.960
65.000	10698.000	1533.960
63.000	10703.000	1533.960
64.000	10699.000	1533.960
81.000	10701.000	1533.960
64.000	10701.000	1533.960
64.000	10700.000	1533.960
64.000	10698.000	1533.960
63.000	10698.000	1533.960
64.000	10697.000	1533.960
64.000	10700.000	1533.960
64.000	10696.000	1533.960
64.000	10701.000	1533.960
64.000	10699.000	1533.960
64.000	10702.000	1533.960
64.000	10697.000	1533.960
80.000	10699.000	1534.080
64.000	10699.000	1533.960
64.000	10696.000	1534.080
64.000	10700.000	1534.080
64.000	10700.000	1533.960
63.000	10698.000	1533.960
64.000	10697.000	1534.080
64.000	10701.000	1533.960
64.000	10701.000	1534.080
64.000	10693.000	1533.960
64.000	10698.000	1533.960
64.000	10699.000	1533.960
80.000	10701.000	1533.830
64.000	10704.000	1533.960
64.000	10699.000	1533.960
64.000	10699.000	1533.960
64.000	10700.000	1534.080
65.000	10701.000	1533.960
63.000	10696.000	1533.960
64.000	10702.000	1533.960
64.000	10698.000	1534.080
65.000	10698.000	1533.960
63.000	10698.000	1534.080
64.000	10700.000	1533.960
80.000	10699.000	1533.960
64.000	10698.000	1533.960
64.000	10700.000	1533.830
64.000	10704.000	1534.080
64.000	10722.000	1533.830
64.000	10735.000	1534.080
64.000	10746.000	1533.960
64.000	10761.000	1533.960
64.000	10777.000	1533.960
63.000	10796.000	1533.960
65.000	10807.000	1533.960
64.000	10821.000	1533.960
79.000	10841.000	1533.960
64.000	10861.000	1533.960
64.000	10879.000	1533.830
64.000	10903.000	1533.960
64.000	10922.000	1533.960
65.000	10941.000	1533.830
64.000	10962.000	1533.830
63.000	10985.000	1533.960
65.000	11001.000	1533.960
64.000	11027.000	1533.960
63.000	11045.000	1534.080
64.000	11072.000	1533.960
64.000	11100.000	1533.830
81.000	11124.000	1534.080
64.000	11149.000	1533.960
63.000	11180.000	1533.960
64.000	11204.000	1533.960
65.000	11235.000	1534.080
64.000	11258.000	1533.960
63.000	11294.000	1533.960
64.000	11315.000	1533.960
64.000	11343.000	1533.960
64.000	11379.000	1534.080
64.000	11411.000	1534.080
64.000	11450.000	1533.960
80.000	11479.000	1533.960
64.000	11516.000	1534.080
64.000	11551.000	1533.960
64.000	11593.000	1534.080
64.000	11634.000	1534.080
64.000	11680.000	1534.080
64.000	11718.000	1534.080
63.000	11766.000	1533.960
65.000	11806.000	1533.960
63.000	11859.000	1533.960
65.000	11910.000	1533.960
64.000	11957.000	1533.960
80.000	12010.000	1533.960
63.000	12064.000	1534.080
64.000	12106.000	1534.210
64.000	12159.000	1534.600
64.000	12214.000	1534.980
64.000	12265.000	1535.490
65.000	12329.000	1536.000
64.000	12393.000	1536.640
63.000	12459.000	1537.150
64.000	12412.000	1536.640
64.000	12347.000	1536.000
65.000	12281.000	1535.490
79.000	12221.000	1534.980
64.000	12175.000	1534.600
64.000	12120.000	1534.470
64.000	12074.000	1534.210
64.000	12028.000	1534.210
64.000	11974.000	1534.210
64.000	11928.000	1534.210
64.000	11875.000	1534.210
64.000	11825.000	1534.080
64.000	11781.000	1534.080
63.000	11736.000	1533.960
65.000	11692.000	1534.080
79.000	11647.000	1534.080
65.000	11614.000	1534.080
64.000	11570.000	1534.080
63.000	11533.000	1533.960
65.000	11498.000	1534.080
64.000	11461.000	1534.080
64.000	11423.000	1534.080
63.000	11390.000	1534.080
64.000	11361.000	1534.080
64.000	11331.000	1534.080
64.000	11298.000	1533.960
64.000	11271.000	1534.080
81.000	11244.000	1534.080
63.000	11212.000	1533.960
64.000	11189.000	1534.080
64.000	11162.000	1533.960
66.000	11138.000	1534.080
63.000	11107.000	1534.080
64.000	11085.000	1533.960
63.000	11068.000	1534.080
64.000	11035.000	1534.080
64.000	11011.000	1533.960
64.000	10990.000	1534.080
65.000	10973.000	1533.960
79.000	10948.000	1534.080
64.000	10928.000	1534.080
64.000	10908.000	1534.080
64.000	10890.000	1534.080
64.000	10870.000	1534.080
64.000	10850.000	1534.080
64.000	10834.000	1533.960
63.000	10815.000	1534.080
64.000	10799.000	1534.080
64.000	10785.000	1534.080
64.000	10765.000	1533.960
64.000	10754.000	1534.080
80.000	10742.000	1534.080
64.000	10724.000	1534.080
64.000	10708.000	1534.080
65.000	10698.000	1533.960
64.000	10702.000	1534.080
64.000	10707.000	1534.080
64.000	10704.000	1534.080
63.000	10704.000	1534.080
64.000	10705.000	1534.080
65.000	10702.000	1534.080
63.000	10700.000	1534.080
64.000	10701.000	1533.960
81.000	10702.000	1534.080
63.000	10704.000	1534.080
64.000	10702.000	1534.080
64.000	10700.000	1533.960
79.000	10703.000	1534.080
49.000	10703.000	1533.960
63.000	10703.000	1534.080
65.000	10705.000	1534.080
64.000	10702.000	1534.080
64.000	10704.000	1534.080
63.000	10703.000	1534.080
64.000	10702.000	1534.080
81.000	10703.000	1533.960
64.000	10701.000	1534.080
64.000	10704.000	1534.080
63.000	10701.000	1534.080
65.000	10701.000	1534.080
63.000	10700.000	1534.080
64.000	10700.000	1533.960
64.000	10703.000	1534.080
65.000	10704.000	1534.210
63.000	10705.000	1534.080
65.000	10704.000	1534.080
64.000	10700.000	1533.960
80.000	10704.000	1534.080
95.000	10701.000	1534.080
32.000	10702.000	1533.960
64.000	10705.000	1533.960
64.000	10703.000	1534.080
64.000	10701.000	1534.080
64.000	10702.000	1534.080
64.000	10707.000	1534.080
64.000	10702.000	1534.080
64.000	10706.000	1534.080
64.000	10704.000	1534.080
64.000	10704.000	1533.960
83.000	10705.000	1534.080
61.000	10707.000	1534.080
63.000	10706.000	1533.960
64.000	10702.000	1534.080
65.000	10707.000	1534.080
65.000	10707.000	1534.080
63.000	10704.000	1534.210
64.000	10702.000	1534.080
65.000	10705.000	1533.960
62.000	10703.000	1534.080
64.000	10705.000	1534.080
65.000	10707.000	1534.080
79.000	10703.000	1534.080
66.000	10701.000	1533.960
62.000	10702.000	1534.080
65.000	10705.000	1534.080
63.000	10705.000	1534.080
64.000	10704.000	1534.080
64.000	10707.000	1534.080
64.000	10705.000	1534.080
64.000	10705.000	1534.080
64.000	10704.000	1534.080
64.000	10704.000	1534.080
64.000	10704.000	1533.960
65.000	10700.000	1534.080
79.000	10705.000	1534.080
64.000	10705.000	1534.080
64.000	10703.000	1534.080
64.000	10704.000	1534.080
64.000	10701.000	1534.080
65.000	10704.000	1534.080
63.000	10706.000	1534.080
69.000	10701.000	1534.080
59.000	10701.000	1534.080
64.000	10706.000	1534.080
96.000	10707.000	1534.080
32.000	10705.000	1533.960
80.000	10706.000	1534.080
64.000	10703.000	1534.080
64.000	10703.000	1534.080
64.000	10705.000	1534.080
63.000	10705.000	1534.080
64.000	10708.000	1534.210
64.000	10701.000	1534.080
65.000	10704.000	1534.080
63.000	10703.000	1534.080
65.000	10706.000	1534.210
63.000	10703.000	1533.960
65.000	10705.000	1534.080
79.000	10709.000	1534.080
65.000	10706.000	1534.080
63.000	10711.000	1534.080
64.000	10728.000	1534.080
65.000	10740.000	1534.080
63.000	10755.000	1534.080
65.000	10771.000	1533.960
63.000	10788.000	1534.080
64.000	10801.000	1534.080
65.000	10819.000	1534.080
63.000	10829.000	1534.080
64.000	10854.000	1534.080
80.000	10875.000	1533.960
64.000	10894.000	1534.080
64.000	10911.000	1534.080
64.000	10932.000	1533.960
64.000	10948.000	1533.960
64.000	10973.000	1533.960
64.000	10991.000	1534.080
64.000	11010.000	1534.080
64.000	11037.000	1534.080
64.000	11058.000	1534.080
64.000	11085.000	1534.080
64.000	11110.000	1533.960
79.000	11137.000	1533.960
65.000	11164.000	1534.080
64.000	11191.000	1533.960
63.000	11215.000	1534.080
64.000	11242.000	1533.960
64.000	11278.000	1534.080
65.000	11300.000	1534.210
64.000	11333.000	1533.960
63.000	11362.000	1534.210
64.000	11398.000	1534.210
64.000	11426.000	1534.080
64.000	11461.000	1533.960
80.000	11497.000	1534.080
64.000	11534.000	1534.080
64.000	11572.000	1534.080
64.000	11610.000	1534.080
64.000	11649.000	1534.080
64.000	11696.000	1533.960
63.000	11736.000	1534.080
65.000	11784.000	1534.080
64.000	11835.000	1534.210
64.000	11874.000	1534.080
64.000	11922.000	1534.210
64.000	11977.000	1534.080
80.000	12029.000	1534.210
64.000	12081.000	1534.340
64.000	12125.000	1534.340
64.000	12177.000	1534.720
63.000	12235.000	1535.110
65.000	12290.000	1535.620
64.000	12352.000	1536.130
63.000	12417.000	1536.900
65.000	12465.000	1537.410
63.000	12411.000	1536.770
64.000	12339.000	1535.870
64.000	12280.000	1535.490
80.000	12220.000	1534.980
64.000	12167.000	1534.600
65.000	12118.000	1534.340
63.000	12078.000	1534.210
65.000	12026.000	1534.080
63.000	11971.000	1534.210
64.000	11922.000	1534.080
64.000	11871.000	1534.080
65.000	11826.000	1534.080
63.000	11780.000	1534.210
64.000	11730.000	1534.080
64.000	11685.000	1534.080
79.000	11649.000	1534.080
65.000	11606.000	1534.080
64.000	11571.000	1534.210
64.000	11526.000	1534.080
64.000	11496.000	1534.080
64.000	11456.000	1534.210
63.000	11427.000	1534.080
64.000	11393.000	1534.080
65.000	11364.000	1534.080
64.000	11325.000	1534.210
64.000	11294.000	1534.080
63.000	11274.000	1533.960
81.000	11241.000	1534.080
64.000	11220.000	1534.210
63.000	11195.000	1534.080
65.000	11164.000	1534.080
63.000	11140.000	1534.080
64.000	11115.000	1534.080
65.000	11084.000	1534.080
63.000	11058.000	1534.080
64.000	11037.000	1534.080
64.000	11015.000	1534.080
64.000	11000.000	1534.080
65.000	10973.000	1534.210
79.000	10952.000	1534.210
64.000	10933.000	1534.210
64.000	10907.000	1534.210
64.000	10892.000	1534.080
64.000	10875.000	1534.080
63.000	10858.000	1534.210
65.000	10837.000	1534.080
64.000	10820.000	1534.210
64.000	10802.000	1534.210
64.000	10789.000	1534.080
64.000	10771.000	1534.080
64.000	10758.000	1534.080
79.000	10745.000	1534.080
64.000	10728.000	1534.210
64.000	10716.000	1534.080
65.000	10702.000	1534.080
64.000	10705.000	1534.080
64.000	10712.000	1534.080
64.000	10707.000	1534.080
64.000	10707.000	1534.210
63.000	10710.000	1534.080
65.000	10706.000	1534.080
63.000	10711.000	1534.210
64.000	10712.000	1534.080
81.000	10709.000	1534.080
63.000	10708.000	1534.210
64.000	10708.000	1534.210
64.000	10708.000	1534.210
64.000	10712.000	1534.210
64.000	10709.000	1534.210
64.000	10707.000	1534.210
64.000	10706.000	1534.080
64.000	10706.000	1534.080
63.000	10708.000	1534.080
65.000	10711.000	1534.080
64.000	10704.000	1534.080
80.000	10709.000	1534.080
64.000	10707.000	1534.210
64.000	10710.000	1534.080
63.000	10707.000	1534.080
64.000	10708.000	1533.960
64.000	10706.000	1533.960
64.000	10709.000	1534.080
65.000	10708.000	1534.080
64.000	10705.000	1534.080
64.000	10708.000	1534.080
63.000	10707.000	1534.210
64.000	10707.000	1534.080
80.000	10712.000	1534.210
65.000	10712.000	1534.080
63.000	10714.000	1534.210
64.000	10712.000	1534.210
64.000	10708.000	1534.080
64.000	10709.000	1534.080
64.000	10706.000	1534.210
64.000	10708.000	1534.080
64.000	10706.000	1534.080
64.000	10709.000	1534.080
64.000	10708.000	1534.210
65.000	10707.000	1534.080
63.000	10711.000	1534.080
80.000	10712.000	1534.080
64.000	10711.000	1534.080
65.000	10711.000	1534.080
63.000	10709.000	1534.080
64.000	10710.000	1534.210
64.000	10708.000	1534.340
64.000	10708.000	1534.080
63.000	10705.000	1534.210
64.000	10706.000	1534.080
65.000	10707.000	1534.080
63.000	10708.000	1534.210
65.000	10710.000	1534.210
80.000	10710.000	1534.080
64.000	10707.000	1534.080
63.000	10708.000	1534.080
64.000	10708.000	1534.080
65.000	10709.000	1534.080
64.000	10709.000	1534.210
63.000	10710.000	1534.210
64.000	10709.000	1534.210
65.000	10709.000	1534.080
64.000	10710.000	1534.210
63.000	10708.000	1534.210
64.000	10709.000	1534.080
80.000	10713.000	1534.210
64.000	10708.000	1534.210
64.000	10707.000	1534.210
64.000	10709.000	1534.080
65.000	10709.000	1534.080
63.000	10709.000	1534.210
64.000	10711.000	1534.210
64.000	10709.000	1534.080
64.000	10710.000	1534.080
64.000	10715.000	1534.210
64.000	10711.000	1534.080
64.000	10708.000	1534.210
80.000	10706.000	1534.080
64.000	10712.000	1534.080
64.000	10710.000	1534.080
64.000	10712.000	1534.080
64.000	10710.000	1533.960
63.000	10709.000	1534.210
65.000	10709.000	1534.210
64.000	10712.000	1534.210
64.000	10712.000	1534.080
64.000	10709.000	1534.080
63.000	10709.000	1534.080
64.000	10707.000	1534.340
80.000	10712.000	1534.210
65.000	10715.000	1534.210
63.000	10727.000	1534.080
65.000	10747.000	1534.080
63.000	10756.000	1534.080
65.000	10770.000	1534.080
63.000	10790.000	1534.080
64.000	10806.000	1534.080
64.000	10819.000	1534.080
65.000	10842.000	1534.080
63.000	10852.000	1534.210
64.000	10878.000	1534.080
80.000	10884.000	1534.080
64.000	10905.000	1534.210
63.000	10930.000	1534.210
65.000	10947.000	1534.210
64.000	10970.000	1534.210
64.000	10997.000	1534.210
64.000	11013.000	1534.080
64.000	11034.000	1534.210
64.000	11061.000	1534.210
63.000	11083.000	1534.210
65.000	11116.000	1534.210
64.000	11136.000	1534.210
80.000	11160.000	1534.080
63.000	11193.000	1534.080
64.000	11214.000	1534.080
65.000	11244.000	1534.080
63.000	11274.000	1534.080
65.000	11303.000	1534.080
63.000	11333.000	1534.080
65.000	11358.000	1534.210
63.000	11392.000	1534.080
65.000	11427.000	1534.210
63.000	11462.000	1534.080
64.000	11496.000	1534.210
80.000	11542.000	1534.210
64.000	11568.000	1534.210
64.000	11609.000	1534.210
65.000	11652.000	1534.080
63.000	11693.000	1534.210
64.000	11740.000	1534.210
64.000	11781.000	1534.210
64.000	11826.000	1534.210
64.000	11876.000	1534.080
63.000	11926.000	1534.080
65.000	11975.000	1534.210
64.000	12027.000	1534.210
80.000	12080.000	1534.210
64.000	12125.000	1534.470
63.000	12178.000	1534.720
65.000	12225.000	1535.110
63.000	12284.000	1535.620
64.000	12345.000	1536.260
65.000	12411.000	1536.770
64.000	12478.000	1537.660
63.000	12448.000	1537.150
64.000	12374.000	1536.390
64.000	12314.000	1535.750
64.000	12251.000	1535.230
80.000	12196.000	1534.850
64.000	12147.000	1534.600
65.000	12097.000	1534.470
63.000	12052.000	1534.210
64.000	12000.000	1534.340
64.000	11949.000	1534.210
64.000	11899.000	1534.340
65.000	11850.000	1534.210
63.000	11799.000	1534.080
64.000	11761.000	1534.210
64.000	11714.000	1534.080
64.000	11672.000	1534.210
80.000	11627.000	1534.340
64.000	11589.000	1534.080
64.000	11552.000	1534.210
64.000	11510.000	1534.210
64.000	11483.000	1534.210
64.000	11443.000	1534.210
63.000	11413.000	1534.080
65.000	11378.000	1534.210
64.000	11352.000	1534.210
64.000	11321.000	1534.210
63.000	11293.000	1534.210
64.000	11264.000	1534.080
80.000	11235.000	1534.210
64.000	11202.000	1534.210
64.000	11181.000	1534.210
65.000	11152.000	1534.210
63.000	11128.000	1534.210
64.000	11100.000	1534.080
64.000	11074.000	1534.080
64.000	11050.000	1534.210
64.000	11025.000	1534.210
64.000	11003.000	1534.210
65.000	10988.000	1534.210
63.000	10964.000	1534.210
80.000	10947.000	1534.080
64.000	10926.000	1534.210
64.000	10900.000	1534.210
64.000	10888.000	1534.210
64.000	10869.000	1534.080
64.000	10851.000	1534.210
64.000	10834.000	1534.210
64.000	10814.000	1534.080
63.000	10801.000	1534.210
64.000	10785.000	1534.080
64.000	10766.000	1534.210
65.000	10743.000	1534.080
79.000	10739.000	1534.210
65.000	10726.000	1534.210
63.000	10710.000	1534.080
65.000	10705.000	1534.210
63.000	10715.000	1534.210
64.000	10714.000	1534.080
64.000	10711.000	1534.210
65.000	10714.000	1534.210
63.000	10711.000	1534.080
64.000	10714.000	1534.210
64.000	10712.000	1534.210
64.000	10716.000	1534.210
80.000	10716.000	1534.210
65.000	10721.000	1534.210
63.000	10711.000	1534.210
65.000	10711.000	1534.210
63.000	10718.000	1534.080
64.000	10716.000	1534.080
64.000	10717.000	1534.210
64.000	10714.000	1534.080
64.000	10714.000	1534.210
65.000	10716.000	1534.210
63.000	10714.000	1534.210
63.000	10716.000	1534.210
81.000	10711.000	1534.080
63.000	10713.000	1534.340
65.000	10718.000	1534.210
64.000	10712.000	1534.080
64.000	10717.000	1534.210
64.000	10714.000	1534.210
63.000	10715.000	1534.080
64.000	10712.000	1534.340
65.000	10716.000	1534.080
64.000	10713.000	1534.210
64.000	10710.000	1534.340
