Loop Time (ms)	IR (16 bit)	Force (N)
256.000	11033.000	1544.310
72.000	11028.000	1544.310
64.000	11031.000	1544.310
63.000	11027.000	1544.440
65.000	11029.000	1544.180
63.000	11026.000	1544.310
65.000	11032.000	1544.180
80.000	11026.000	1544.180
64.000	11028.000	1544.310
63.000	11030.000	1544.310
65.000	11025.000	1544.310
63.000	11032.000	1544.310
64.000	11030.000	1544.310
64.000	11027.000	1544.310
65.000	11030.000	1544.310
63.000	11030.000	1544.180
65.000	11030.000	1544.310
64.000	11030.000	1544.310
63.000	11029.000	1544.180
81.000	11030.000	1544.440
63.000	11034.000	1544.180
64.000	11032.000	1544.180
64.000	11032.000	1544.310
64.000	11031.000	1544.180
64.000	11030.000	1544.310
64.000	11031.000	1544.310
63.000	11032.000	1544.310
64.000	11028.000	1544.310
65.000	11033.000	1544.310
64.000	11034.000	1544.310
63.000	11034.000	1544.310
80.000	11036.000	1544.310
65.000	11037.000	1544.310
63.000	11028.000	1544.310
64.000	11030.000	1544.310
65.000	11032.000	1544.310
63.000	11028.000	1544.310
65.000	11029.000	1544.440
63.000	11026.000	1544.180
64.000	11036.000	1544.310
64.000	11031.000	1544.310
65.000	11029.000	1544.310
63.000	11026.000	1544.310
80.000	11028.000	1544.440
64.000	11032.000	1544.180
64.000	11026.000	1544.310
64.000	11029.000	1544.310
64.000	11031.000	1544.180
64.000	11026.000	1544.310
65.000	11029.000	1544.310
63.000	11032.000	1544.180
63.000	11028.000	1544.310
65.000	11034.000	1544.310
64.000	11041.000	1544.310
64.000	11048.000	1544.310
80.000	11056.000	1544.310
64.000	11064.000	1544.310
63.000	11068.000	1544.180
65.000	11081.000	1544.180
64.000	11075.000	1544.310
64.000	11083.000	1544.310
64.000	11097.000	1544.310
63.000	11102.000	1544.310
64.000	11114.000	1544.180
64.000	11121.000	1544.180
64.000	11135.000	1544.440
64.000	11142.000	1544.310
81.000	11146.000	1544.310
64.000	11155.000	1544.310
63.000	11163.000	1544.310
64.000	11175.000	1544.310
64.000	11183.000	1544.310
64.000	11193.000	1544.310
64.000	11211.000	1544.310
65.000	11215.000	1544.310
64.000	11222.000	1544.310
63.000	11235.000	1544.180
64.000	11245.000	1544.310
64.000	11256.000	1544.180
80.000	11273.000	1544.310
64.000	11278.000	1544.310
63.000	11296.000	1544.310
65.000	11308.000	1544.310
64.000	11321.000	1544.310
64.000	11336.000	1544.310
64.000	11345.000	1544.310
63.000	11368.000	1544.310
65.000	11380.000	1544.180
63.000	11390.000	1544.310
64.000	11411.000	1544.180
65.000	11424.000	1544.310
79.000	11437.000	1544.310
65.000	11460.000	1544.180
63.000	11479.000	1544.310
64.000	11497.000	1544.180
65.000	11513.000	1544.180
64.000	11533.000	1544.310
63.000	11552.000	1544.310
64.000	11574.000	1544.310
64.000	11597.000	1544.310
64.000	11617.000	1544.180
64.000	11639.000	1544.180
64.000	11661.000	1544.310
80.000	11685.000	1544.310
64.000	11716.000	1544.180
64.000	11739.000	1544.180
64.000	11769.000	1544.180
64.000	11794.000	1544.310
64.000	11824.000	1544.310
64.000	11854.000	1544.310
64.000	11886.000	1544.180
63.000	11908.000	1544.310
65.000	11943.000	1544.310
63.000	11970.000	1544.310
64.000	12009.000	1544.310
80.000	12053.000	1544.180
65.000	12082.000	1544.180
63.000	12121.000	1544.310
64.000	12162.000	1544.310
65.000	12201.000	1544.310
64.000	12239.000	1544.310
64.000	12283.000	1544.180
63.000	12325.000	1544.310
64.000	12368.000	1544.310
65.000	12418.000	1544.310
63.000	12468.000	1544.180
64.000	12517.000	1544.440
80.000	12571.000	1544.180
64.000	12622.000	1544.310
65.000	12680.000	1544.310
63.000	12741.000	1544.310
64.000	12806.000	1544.180
64.000	12859.000	1544.310
64.000	12933.000	1544.310
64.000	13000.000	1544.310
64.000	13059.000	1544.440
63.000	13138.000	1544.690
64.000	13212.000	1544.820
65.000	13300.000	1545.080
79.000	13382.000	1545.590
65.000	13473.000	1545.970
64.000	13575.000	1546.610
64.000	13567.000	1546.350
63.000	13467.000	1545.840
65.000	13370.000	1545.590
64.000	13290.000	1545.080
63.000	13205.000	1544.690
65.000	13136.000	1544.570
64.000	13065.000	1544.440
64.000	12999.000	1544.310
63.000	12927.000	1544.310
81.000	12864.000	1544.310
63.000	12797.000	1544.310
65.000	12739.000	1544.180
63.000	12681.000	1544.310
65.000	12624.000	1544.180
64.000	12570.000	1544.310
63.000	12515.000	1544.310
65.000	12466.000	1544.310
63.000	12417.000	1544.310
63.000	12371.000	1544.180
65.000	12321.000	1544.310
65.000	12278.000	1544.310
79.000	12237.000	1544.180
64.000	12194.000	1544.180
64.000	12157.000	1544.180
63.000	12118.000	1544.310
64.000	12085.000	1544.310
65.000	12045.000	1544.310
64.000	12008.000	1544.310
63.000	11976.000	1544.310
65.000	11936.000	1544.310
64.000	11908.000	1544.310
64.000	11875.000	1544.180
63.000	11846.000	1544.310
81.000	11820.000	1544.310
64.000	11796.000	1544.310
63.000	11761.000	1544.310
64.000	11734.000	1544.310
64.000	11715.000	1544.310
65.000	11684.000	1544.310
63.000	11662.000	1544.180
64.000	11638.000	1544.310
65.000	11611.000	1544.180
63.000	11596.000	1544.310
64.000	11570.000	1544.310
64.000	11544.000	1544.310
80.000	11526.000	1544.180
64.000	11509.000	1544.180
64.000	11492.000	1544.180
64.000	11473.000	1544.180
64.000	11456.000	1544.310
64.000	11436.000	1544.310
64.000	11423.000	1544.310
64.000	11407.000	1544.180
64.000	11389.000	1544.180
64.000	11376.000	1544.310
63.000	11361.000	1544.180
65.000	11348.000	1544.180
79.000	11333.000	1544.310
65.000	11317.000	1544.310
63.000	11307.000	1544.310
65.000	11297.000	1544.310
64.000	11282.000	1544.310
64.000	11272.000	1544.310
64.000	11257.000	1544.310
64.000	11248.000	1544.180
63.000	11231.000	1544.310
65.000	11226.000	1544.310
63.000	11212.000	1544.310
64.000	11202.000	1544.310
65.000	11193.000	1544.310
79.000	11177.000	1544.180
64.000	11168.000	1544.180
64.000	11163.000	1544.180
64.000	11150.000	1544.180
64.000	11145.000	1544.310
64.000	11135.000	1544.180
64.000	11129.000	1544.310
64.000	11118.000	1544.180
63.000	11115.000	1544.310
66.000	11098.000	1544.180
64.000	11100.000	1544.310
63.000	11092.000	1544.180
80.000	11083.000	1544.310
64.000	11071.000	1544.180
63.000	11063.000	1544.310
66.000	11053.000	1544.310
63.000	11049.000	1544.180
63.000	11041.000	1544.310
64.000	11040.000	1544.310
65.000	11032.000	1544.180
63.000	11027.000	1544.180
65.000	11024.000	1544.310
63.000	11036.000	1544.180
65.000	11033.000	1544.310
79.000	11036.000	1544.310
64.000	11032.000	1544.180
65.000	11037.000	1544.310
65.000	11028.000	1544.310
62.000	11027.000	1544.180
65.000	11034.000	1544.310
63.000	11031.000	1544.310
65.000	11032.000	1544.310
63.000	11026.000	1544.180
64.000	11027.000	1544.180
64.000	11033.000	1544.310
64.000	11025.000	1544.310
80.000	11031.000	1544.310
65.000	11030.000	1544.180
63.000	11026.000	1544.310
64.000	11027.000	1544.180
64.000	11028.000	1544.310
64.000	11036.000	1544.180
64.000	11034.000	1544.310
64.000	11033.000	1544.180
64.000	11030.000	1544.180
64.000	11031.000	1544.180
63.000	11030.000	1544.180
65.000	11028.000	1544.310
80.000	11031.000	1544.310
64.000	11026.000	1544.310
64.000	11029.000	1544.310
64.000	11028.000	1544.310
64.000	11034.000	1544.180
64.000	11033.000	1544.310
73.000	11032.000	1544.310
55.000	11032.000	1544.310
64.000	11027.000	1544.180
64.000	11034.000	1544.180
63.000	11028.000	1544.310
64.000	11027.000	1544.310
81.000	11038.000	1544.310
69.000	11034.000	1544.310
58.000	11032.000	1544.180
64.000	11027.000	1544.180
64.000	11030.000	1544.180
64.000	11033.000	1544.310
64.000	11030.000	1544.180
63.000	11028.000	1544.310
65.000	11029.000	1544.180
64.000	11024.000	1544.310
64.000	11027.000	1544.180
64.000	11027.000	1544.310
80.000	11030.000	1544.180
64.000	11030.000	1544.310
64.000	11033.000	1544.180
63.000	11030.000	1544.180
65.000	11030.000	1544.180
63.000	11028.000	1544.310
64.000	11031.000	1544.310
64.000	11029.000	1544.310
64.000	11032.000	1544.180
64.000	11027.000	1544.180
65.000	11030.000	1544.180
64.000	11029.000	1544.180
79.000	11028.000	1544.180
73.000	11032.000	1544.310
55.000	11029.000	1544.310
64.000	11030.000	1544.180
65.000	11035.000	1544.310
63.000	11030.000	1544.180
65.000	11033.000	1544.310
64.000	11027.000	1544.310
63.000	11031.000	1544.180
65.000	11033.000	1544.310
63.000	11031.000	1544.180
64.000	11028.000	1544.180
80.000	11034.000	1544.180
64.000	11030.000	1544.310
64.000	11031.000	1544.180
64.000	11034.000	1544.180
64.000	11033.000	1544.310
64.000	11029.000	1544.310
64.000	11031.000	1544.180
64.000	11027.000	1544.310
64.000	11027.000	1544.180
64.000	11029.000	1544.310
64.000	11026.000	1544.310
64.000	11030.000	1544.310
80.000	11033.000	1544.310
64.000	11034.000	1544.310
64.000	11029.000	1544.310
64.000	11026.000	1544.180
64.000	11023.000	1544.440
64.000	11028.000	1544.310
63.000	11032.000	1544.180
64.000	11031.000	1544.180
64.000	11030.000	1544.180
65.000	11039.000	1544.310
63.000	11045.000	1544.180
64.000	11049.000	1544.310
80.000	11054.000	1544.310
64.000	11062.000	1544.310
64.000	11079.000	1544.180
65.000	11075.000	1544.180
63.000	11082.000	1544.180
64.000	11091.000	1544.180
64.000	11099.000	1544.180
64.000	11111.000	1544.310
65.000	11117.000	1544.180
63.000	11123.000	1544.180
64.000	11135.000	1544.310
64.000	11145.000	1544.180
80.000	11152.000	1544.310
64.000	11161.000	1544.180
63.000	11169.000	1544.310
65.000	11182.000	1544.310
63.000	11187.000	1544.310
65.000	11197.000	1544.180
64.000	11212.000	1544.180
64.000	11219.000	1544.180
64.000	11228.000	1544.180
63.000	11242.000	1544.310
64.000	11250.000	1544.180
65.000	11264.000	1544.310
80.000	11275.000	1544.180
64.000	11289.000	1544.310
64.000	11299.000	1544.310
64.000	11315.000	1544.310
63.000	11325.000	1544.180
64.000	11339.000	1544.310
65.000	11354.000	1544.310
63.000	11371.000	1544.310
64.000	11385.000	1544.310
64.000	11400.000	1544.180
64.000	11415.000	1544.310
64.000	11438.000	1544.180
64.000	11450.000	1544.180
80.000	11469.000	1544.180
64.000	11487.000	1544.180
64.000	11507.000	1544.310
64.000	11520.000	1544.310
64.000	11540.000	1544.310
64.000	11560.000	1544.180
63.000	11587.000	1544.180
65.000	11600.000	1544.180
64.000	11627.000	1544.180
64.000	11653.000	1544.180
64.000	11673.000	1544.310
63.000	11704.000	1544.310
81.000	11729.000	1544.310
63.000	11752.000	1544.180
64.000	11776.000	1544.310
65.000	11805.000	1544.310
64.000	11835.000	1544.180
63.000	11865.000	1544.180
64.000	11898.000	1544.310
65.000	11928.000	1544.180
64.000	11960.000	1544.180
63.000	11994.000	1544.180
65.000	12028.000	1544.180
63.000	12067.000	1544.310
80.000	12105.000	1544.310
64.000	12145.000	1544.310
64.000	12185.000	1544.310
64.000	12222.000	1544.310
64.000	12261.000	1544.180
64.000	12302.000	1544.180
64.000	12349.000	1544.180
64.000	12395.000	1544.180
63.000	12444.000	1544.310
65.000	12495.000	1544.180
64.000	12546.000	1544.310
64.000	12602.000	1544.180
80.000	12655.000	1544.180
63.000	12715.000	1544.180
65.000	12776.000	1544.180
64.000	12836.000	1544.180
64.000	12901.000	1544.180
64.000	12971.000	1544.310
64.000	13033.000	1544.440
64.000	13103.000	1544.570
64.000	13187.000	1544.820
64.000	13261.000	1545.080
63.000	13345.000	1545.330
65.000	13428.000	1545.840
79.000	13527.000	1546.350
65.000	13580.000	1546.480
63.000	13485.000	1545.970
64.000	13384.000	1545.460
64.000	13301.000	1545.200
65.000	13216.000	1544.820
63.000	13142.000	1544.570
64.000	13072.000	1544.570
64.000	13009.000	1544.310
65.000	12938.000	1544.310
63.000	12872.000	1544.310
64.000	12811.000	1544.310
80.000	12751.000	1544.310
64.000	12691.000	1544.310
64.000	12631.000	1544.310
64.000	12579.000	1544.310
63.000	12527.000	1544.180
65.000	12475.000	1544.310
64.000	12422.000	1544.310
63.000	12376.000	1544.180
65.000	12335.000	1544.180
63.000	12288.000	1544.180
65.000	12245.000	1544.180
64.000	12202.000	1544.310
79.000	12169.000	1544.310
64.000	12126.000	1544.310
64.000	12087.000	1544.180
64.000	12052.000	1544.310
64.000	12013.000	1544.180
64.000	11985.000	1544.180
64.000	11944.000	1544.180
64.000	11914.000	1544.310
64.000	11887.000	1544.180
64.000	11852.000	1544.180
64.000	11829.000	1544.180
64.000	11795.000	1544.180
80.000	11764.000	1544.180
64.000	11744.000	1544.310
64.000	11712.000	1544.180
64.000	11693.000	1544.180
64.000	11662.000	1544.180
64.000	11645.000	1544.180
64.000	11618.000	1544.180
64.000	11597.000	1544.310
64.000	11576.000	1544.180
64.000	11550.000	1544.180
63.000	11533.000	1544.180
65.000	11513.000	1544.180
79.000	11494.000	1544.180
64.000	11475.000	1544.310
64.000	11459.000	1544.180
65.000	11447.000	1544.180
63.000	11426.000	1544.310
65.000	11414.000	1544.180
63.000	11394.000	1544.180
65.000	11377.000	1544.180
63.000	11364.000	1544.180
64.000	11345.000	1544.180
65.000	11330.000	1544.180
63.000	11325.000	1544.180
80.000	11309.000	1544.180
65.000	11299.000	1544.310
64.000	11279.000	1544.310
63.000	11270.000	1544.180
65.000	11262.000	1544.310
63.000	11246.000	1544.180
65.000	11241.000	1544.180
63.000	11223.000	1544.180
64.000	11214.000	1544.180
64.000	11197.000	1544.180
64.000	11195.000	1544.050
63.000	11180.000	1544.310
81.000	11171.000	1544.310
64.000	11168.000	1544.180
64.000	11152.000	1544.310
64.000	11149.000	1544.310
63.000	11135.000	1544.180
64.000	11130.000	1544.310
64.000	11121.000	1544.310
65.000	11115.000	1544.180
63.000	11105.000	1544.050
64.000	11101.000	1544.180
65.000	11087.000	1544.310
64.000	11082.000	1544.180
80.000	11080.000	1544.310
63.000	11065.000	1544.180
64.000	11063.000	1544.310
65.000	11055.000	1544.310
63.000	11046.000	1544.310
64.000	11041.000	1544.050
64.000	11031.000	1544.180
64.000	11028.000	1544.180
65.000	11027.000	1544.180
63.000	11031.000	1544.310
64.000	11030.000	1544.310
64.000	11030.000	1544.310
80.000	11033.000	1544.310
64.000	11032.000	1544.180
64.000	11028.000	1544.310
64.000	11032.000	1544.440
64.000	11024.000	1544.310
64.000	11030.000	1544.050
64.000	11038.000	1544.310
63.000	11036.000	1544.180
65.000	11032.000	1544.310
64.000	11029.000	1544.180
63.000	11028.000	1544.180
65.000	11026.000	1544.050
79.000	11030.000	1544.180
64.000	11033.000	1544.180
65.000	11028.000	1544.310
63.000	11029.000	1544.050
65.000	11027.000	1544.180
64.000	11032.000	1544.180
63.000	11028.000	1544.180
64.000	11030.000	1544.180
64.000	11031.000	1544.180
64.000	11031.000	1544.310
64.000	11037.000	1544.310
64.000	11032.000	1544.180
80.000	11031.000	1544.310
64.000	11038.000	1544.180
65.000	11031.000	1544.180
63.000	11030.000	1544.310
64.000	11025.000	1544.180
64.000	11034.000	1544.180
64.000	11028.000	1544.180
64.000	11027.000	1544.310
64.000	11032.000	1544.180
64.000	11034.000	1544.180
64.000	11030.000	1544.310
64.000	11032.000	1544.180
80.000	11032.000	1544.180
64.000	11031.000	1544.180
64.000	11030.000	1544.180
64.000	11029.000	1544.180
63.000	11029.000	1544.310
65.000	11037.000	1544.180
64.000	11030.000	1544.180
63.000	11030.000	1544.180
64.000	11030.000	1544.050
64.000	11026.000	1544.180
64.000	11028.000	1544.310
64.000	11033.000	1544.180
65.000	11028.000	1544.180
79.000	11034.000	1544.050
65.000	11032.000	1544.180
64.000	11038.000	1544.180
63.000	11030.000	1544.180
64.000	11031.000	1544.180
65.000	11028.000	1544.310
63.000	11032.000	1544.310
64.000	11031.000	1544.180
64.000	11037.000	1544.180
64.000	11030.000	1544.310
64.000	11032.000	1544.180
64.000	11030.000	1544.310
80.000	11024.000	1544.180
64.000	11026.000	1544.180
64.000	11028.000	1544.310
64.000	11028.000	1544.180
64.000	11030.000	1544.180
64.000	11028.000	1544.180
64.000	11029.000	1544.180
64.000	11027.000	1544.180
64.000	11029.000	1544.310
63.000	11025.000	1544.180
65.000	11031.000	1544.180
64.000	11031.000	1544.180
80.000	11033.000	1544.180
63.000	11027.000	1544.180
65.000	11035.000	1544.180
63.000	11034.000	1544.180
64.000	11031.000	1544.180
64.000	11026.000	1544.180
64.000	11034.000	1544.180
65.000	11027.000	1544.180
64.000	11025.000	1544.180
64.000	11030.000	1544.180
64.000	11031.000	1544.050
64.000	11024.000	1544.180
79.000	11030.000	1544.180
65.000	11023.000	1544.310
63.000	11032.000	1544.180
65.000	11028.000	1544.180
63.000	11031.000	1544.180
64.000	11032.000	1544.180
63.000	11031.000	1544.310
65.000	11039.000	1544.180
64.000	11046.000	1544.310
64.000	11050.000	1544.180
64.000	11060.000	1544.050
63.000	11062.000	1544.180
81.000	11076.000	1544.180
64.000	11080.000	1544.310
64.000	11088.000	1544.310
64.000	11101.000	1544.180
64.000	11102.000	1544.180
64.000	11113.000	1544.180
63.000	11116.000	1544.180
64.000	11128.000	1544.310
65.000	11136.000	1544.180
64.000	11147.000	1544.180
64.000	11157.000	1544.180
63.000	11166.000	1544.180
80.000	11170.000	1544.050
64.000	11182.000	1544.180
65.000	11194.000	1544.180
64.000	11203.000	1544.180
64.000	11213.000	1544.180
64.000	11221.000	1544.180
63.000	11235.000	1544.180
64.000	11249.000	1544.180
64.000	11259.000	1544.050
64.000	11266.000	1544.180
64.000	11282.000	1544.180
64.000	11298.000	1544.310
79.000	11308.000	1544.310
65.000	11319.000	1544.180
64.000	11332.000	1544.180
64.000	11345.000	1544.310
64.000	11363.000	1544.180
64.000	11380.000	1544.310
64.000	11394.000	1544.050
63.000	11408.000	1544.180
64.000	11424.000	1544.310
64.000	11439.000	1544.180
64.000	11461.000	1544.180
65.000	11472.000	1544.050
80.000	11494.000	1544.180
63.000	11509.000	1544.180
64.000	11532.000	1544.050
64.000	11551.000	1544.310
64.000	11571.000	1544.180
64.000	11596.000	1544.310
65.000	11615.000	1544.180
63.000	11643.000	1544.310
64.000	11663.000	1544.180
64.000	11686.000	1544.180
64.000	11712.000	1544.180
64.000	11733.000	1544.180
80.000	11773.000	1544.310
64.000	11794.000	1544.180
64.000	11819.000	1544.180
64.000	11849.000	1544.180
64.000	11882.000	1544.180
64.000	11918.000	1544.310
64.000	11943.000	1544.180
64.000	11976.000	1544.180
64.000	12007.000	1544.050
64.000	12041.000	1544.180
64.000	12085.000	1544.180
64.000	12128.000	1544.180
79.000	12157.000	1544.180
65.000	12198.000	1544.180
63.000	12238.000	1544.180
64.000	12284.000	1544.180
65.000	12325.000	1544.180
63.000	12371.000	1544.310
64.000	12414.000	1544.180
64.000	12469.000	1544.180
64.000	12522.000	1544.180
64.000	12573.000	1544.180
65.000	12625.000	1544.180
63.000	12681.000	1544.310
80.000	12741.000	1544.310
65.000	12804.000	1544.180
64.000	12864.000	1544.310
64.000	12930.000	1544.180
63.000	12996.000	1544.440
64.000	13065.000	1544.440
64.000	13143.000	1544.570
64.000	13221.000	1544.820
65.000	13302.000	1545.200
63.000	13387.000	1545.590
64.000	13477.000	1545.840
64.000	13587.000	1546.350
80.000	13613.000	1546.480
64.000	13507.000	1545.970
64.000	13411.000	1545.460
64.000	13327.000	1545.200
64.000	13238.000	1544.690
64.000	13165.000	1544.570
64.000	13087.000	1544.310
63.000	13023.000	1544.310
65.000	12957.000	1544.180
63.000	12890.000	1544.310
64.000	12821.000	1544.180
64.000	12760.000	1544.180
81.000	12705.000	1544.180
64.000	12644.000	1544.310
63.000	12589.000	1544.180
65.000	12536.000	1544.180
63.000	12482.000	1544.180
64.000	12433.000	1544.180
64.000	12385.000	1544.180
64.000	12338.000	1544.180
65.000	12295.000	1544.180
63.000	12252.000	1544.180
64.000	12215.000	1544.180
64.000	12174.000	1544.180
81.000	12135.000	1544.050
63.000	12094.000	1544.180
64.000	12063.000	1544.180
64.000	12022.000	1544.180
64.000	11987.000	1544.180
64.000	11956.000	1544.180
64.000	11920.000	1544.180
64.000	11891.000	1544.180
64.000	11861.000	1544.310
64.000	11831.000	1544.180
63.000	11805.000	1544.180
65.000	11777.000	1544.180
80.000	11744.000	1544.310
63.000	11716.000	1544.180
64.000	11697.000	1544.180
64.000	11674.000	1544.180
64.000	11649.000	1544.180
65.000	11619.000	1544.050
64.000	11600.000	1544.180
64.000	11579.000	1544.180
64.000	11562.000	1544.310
