Loop Time (ms)	IR (16 bit)	Force (N)
260.000	9669.000	1529.990
53.000	9671.000	1529.990
81.000	9675.000	1529.990
63.000	9672.000	1530.120
65.000	9675.000	1529.990
63.000	9673.000	1530.120
64.000	9673.000	1530.120
64.000	9675.000	1530.250
64.000	9676.000	1529.990
65.000	9679.000	1530.120
63.000	9679.000	1529.990
65.000	9682.000	1530.120
63.000	9685.000	1529.990
64.000	9684.000	1530.120
80.000	9682.000	1530.120
65.000	9681.000	1529.990
63.000	9688.000	1530.120
64.000	9689.000	1529.990
64.000	9689.000	1530.120
64.000	9691.000	1529.990
64.000	9690.000	1529.990
65.000	9692.000	1530.120
63.000	9692.000	1529.990
64.000	9694.000	1530.120
64.000	9692.000	1530.120
64.000	9693.000	1530.120
80.000	9694.000	1529.990
64.000	9694.000	1530.120
64.000	9697.000	1530.120
64.000	9697.000	1530.120
64.000	9701.000	1530.250
64.000	9705.000	1530.120
63.000	9705.000	1529.990
66.000	9702.000	1530.120
63.000	9704.000	1530.120
64.000	9708.000	1530.120
64.000	9708.000	1530.120
64.000	9706.000	1530.120
80.000	9709.000	1530.120
63.000	9709.000	1530.120
65.000	9713.000	1530.120
63.000	9712.000	1530.120
64.000	9715.000	1530.120
65.000	9714.000	1530.120
63.000	9711.000	1530.120
64.000	9716.000	1530.120
64.000	9717.000	1530.120
64.000	9720.000	1530.120
64.000	9714.000	1530.120
64.000	9722.000	1530.120
80.000	9719.000	1530.250
64.000	9718.000	1530.120
64.000	9720.000	1530.120
64.000	9726.000	1530.250
64.000	9723.000	1530.250
64.000	9721.000	1530.380
64.000	9725.000	1530.250
63.000	9723.000	1530.250
65.000	9728.000	1530.250
63.000	9727.000	1530.120
64.000	9733.000	1530.120
65.000	9733.000	1530.250
63.000	9730.000	1530.250
81.000	9730.000	1530.250
63.000	9734.000	1530.250
64.000	9736.000	1530.250
64.000	9737.000	1530.250
65.000	9740.000	1530.250
63.000	9734.000	1530.120
65.000	9736.000	1530.250
64.000	9737.000	1530.120
64.000	9743.000	1530.250
64.000	9738.000	1530.120
63.000	9739.000	1530.120
64.000	9741.000	1530.250
80.000	9742.000	1530.250
64.000	9743.000	1530.250
64.000	9738.000	1530.250
64.000	9741.000	1530.250
64.000	9750.000	1530.380
63.000	9746.000	1530.250
64.000	9747.000	1530.250
65.000	9752.000	1530.250
63.000	9748.000	1530.250
65.000	9747.000	1530.250
64.000	9748.000	1530.250
64.000	9752.000	1530.250
80.000	9750.000	1530.250
64.000	9748.000	1530.380
64.000	9754.000	1530.250
64.000	9752.000	1530.250
63.000	9752.000	1530.380
64.000	9756.000	1530.380
64.000	9757.000	1530.250
64.000	9752.000	1530.380
65.000	9755.000	1530.250
64.000	9759.000	1530.250
64.000	9757.000	1530.250
63.000	9757.000	1530.250
80.000	9761.000	1530.250
64.000	9759.000	1530.250
64.000	9759.000	1530.250
64.000	9763.000	1530.380
64.000	9760.000	1530.250
64.000	9766.000	1530.250
64.000	9761.000	1530.250
65.000	9758.000	1530.250
63.000	9762.000	1530.250
64.000	9764.000	1530.380
65.000	9762.000	1530.250
63.000	9765.000	1530.250
80.000	9767.000	1530.250
64.000	9768.000	1530.380
64.000	9770.000	1530.380
64.000	9769.000	1530.250
63.000	9770.000	1530.380
65.000	9773.000	1530.250
64.000	9769.000	1530.380
63.000	9771.000	1530.380
64.000	9773.000	1530.380
65.000	9768.000	1530.250
64.000	9780.000	1530.250
63.000	9775.000	1530.380
80.000	9776.000	1530.380
65.000	9774.000	1530.380
64.000	9782.000	1530.250
63.000	9775.000	1530.250
66.000	9781.000	1530.250
63.000	9779.000	1530.250
64.000	9781.000	1530.380
63.000	9781.000	1530.380
64.000	9779.000	1530.380
64.000	9781.000	1530.380
64.000	9783.000	1530.380
65.000	9782.000	1530.510
79.000	9779.000	1530.250
65.000	9788.000	1530.510
63.000	9783.000	1530.380
64.000	9782.000	1530.380
64.000	9780.000	1530.380
64.000	9787.000	1530.380
64.000	9788.000	1530.510
64.000	9786.000	1530.380
64.000	9794.000	1530.380
64.000	9786.000	1530.380
64.000	9792.000	1530.380
64.000	9788.000	1530.380
80.000	9794.000	1530.380
65.000	9795.000	1530.250
62.000	9787.000	1530.380
64.000	9792.000	1530.380
65.000	9795.000	1530.380
64.000	9795.000	1530.380
63.000	9796.000	1530.380
64.000	9794.000	1530.380
67.000	9796.000	1530.380
61.000	9800.000	1530.380
65.000	9794.000	1530.380
64.000	9799.000	1530.380
80.000	9807.000	1530.250
63.000	9815.000	1530.380
82.000	9830.000	1530.510
60.000	9845.000	1530.380
50.000	9858.000	1530.380
64.000	9871.000	1530.380
64.000	9880.000	1530.380
64.000	9898.000	1530.510
64.000	9917.000	1530.380
63.000	9930.000	1530.250
65.000	9946.000	1530.380
64.000	9955.000	1530.380
80.000	9978.000	1530.380
64.000	9995.000	1530.380
64.000	10011.000	1530.510
64.000	10031.000	1530.380
64.000	10044.000	1530.380
64.000	10065.000	1530.380
64.000	10084.000	1530.380
64.000	10106.000	1530.380
64.000	10121.000	1530.380
64.000	10143.000	1530.510
64.000	10165.000	1530.510
63.000	10187.000	1530.510
80.000	10208.000	1530.510
64.000	10234.000	1530.510
65.000	10253.000	1530.380
64.000	10277.000	1530.510
64.000	10304.000	1530.380
64.000	10327.000	1530.380
64.000	10355.000	1530.380
63.000	10384.000	1530.380
65.000	10413.000	1530.510
64.000	10439.000	1530.380
64.000	10472.000	1530.380
63.000	10507.000	1530.510
81.000	10534.000	1530.380
63.000	10567.000	1530.510
64.000	10605.000	1530.510
65.000	10635.000	1530.510
63.000	10676.000	1530.510
64.000	10704.000	1530.380
64.000	10749.000	1530.510
64.000	10791.000	1530.510
64.000	10823.000	1530.380
64.000	10874.000	1530.380
64.000	10911.000	1530.510
64.000	10962.000	1530.760
80.000	10995.000	1531.020
64.000	11036.000	1531.400
64.000	11088.000	1531.780
64.000	11140.000	1532.300
64.000	11195.000	1532.810
63.000	11249.000	1533.570
66.000	11329.000	1534.470
62.000	11424.000	1535.360
64.000	11553.000	1536.260
66.000	11663.000	1537.410
63.000	11764.000	1538.560
64.000	11860.000	1539.960
63.000	11952.000	1541.370
80.000	12033.000	1543.160
65.000	12073.000	1544.690
63.000	12062.000	1546.480
64.000	12058.000	1548.530
65.000	12041.000	1550.440
63.000	12026.000	1552.620
65.000	12040.000	1555.050
63.000	12086.000	1557.600
64.000	12169.000	1560.290
65.000	12266.000	1563.100
63.000	12376.000	1565.910
64.000	12468.000	1568.590
80.000	12568.000	1571.410
64.000	12710.000	1574.090
63.000	12879.000	1576.650
65.000	13089.000	1579.200
64.000	13834.000	1581.630
64.000	14363.000	1584.060
64.000	14675.000	1585.980
64.000	14924.000	1588.020
64.000	15212.000	1589.940
63.000	15482.000	1591.470
65.000	15617.000	1592.880
63.000	15728.000	1594.160
81.000	15719.000	1593.130
63.000	15758.000	1590.710
65.000	15812.000	1587.770
64.000	15866.000	1584.440
64.000	15849.000	1580.860
63.000	15791.000	1577.410
65.000	15691.000	1573.200
64.000	15556.000	1569.230
64.000	15401.000	1565.400
63.000	15173.000	1561.560
64.000	14801.000	1558.110
65.000	14308.000	1554.790
79.000	13668.000	1551.590
65.000	12752.000	1548.910
63.000	11890.000	1546.480
64.000	11238.000	1544.440
64.000	10786.000	1542.780
64.000	10469.000	1541.110
64.000	10246.000	1539.710
64.000	10074.000	1538.050
63.000	9948.000	1536.390
65.000	9816.000	1535.360
64.000	9780.000	1534.470
64.000	9787.000	1533.700
80.000	9799.000	1533.060
64.000	9813.000	1532.420
64.000	9840.000	1531.780
64.000	9863.000	1531.140
64.000	9890.000	1530.890
63.000	9915.000	1530.380
65.000	9945.000	1530.120
64.000	9959.000	1529.990
64.000	9981.000	1529.740
64.000	9997.000	1529.610
64.000	10012.000	1529.740
64.000	10021.000	1529.480
80.000	10027.000	1529.610
64.000	10018.000	1529.610
64.000	10033.000	1529.870
63.000	10070.000	1529.740
65.000	10090.000	1529.870
63.000	10088.000	1529.990
64.000	10072.000	1529.990
64.000	10062.000	1529.990
64.000	10057.000	1529.990
64.000	10042.000	1530.120
64.000	10026.000	1530.120
63.000	10013.000	1529.990
81.000	10002.000	1530.250
64.000	9983.000	1530.120
64.000	9969.000	1530.250
64.000	9953.000	1530.250
63.000	9946.000	1530.120
64.000	9932.000	1530.250
65.000	9925.000	1530.250
63.000	9924.000	1530.250
65.000	9925.000	1530.250
64.000	9919.000	1530.250
64.000	9914.000	1530.250
64.000	9909.000	1530.380
79.000	9910.000	1530.380
65.000	9904.000	1530.250
64.000	9897.000	1530.380
63.000	9893.000	1530.250
64.000	9885.000	1530.250
65.000	9879.000	1530.380
64.000	9873.000	1530.380
64.000	9865.000	1530.250
64.000	9860.000	1530.380
64.000	9854.000	1530.380
63.000	9855.000	1530.380
65.000	9847.000	1530.380
79.000	9839.000	1530.510
64.000	9832.000	1530.510
64.000	9824.000	1530.510
66.000	9817.000	1530.380
62.000	9817.000	1530.510
64.000	9803.000	1530.510
64.000	9801.000	1530.510
64.000	9793.000	1530.510
64.000	9792.000	1530.380
64.000	9783.000	1530.510
64.000	9783.000	1530.630
63.000	9770.000	1530.510
80.000	9760.000	1530.510
66.000	9760.000	1530.510
63.000	9769.000	1530.380
63.000	9779.000	1530.510
65.000	9783.000	1530.510
64.000	9802.000	1530.630
64.000	9807.000	1530.630
64.000	9812.000	1530.630
63.000	9821.000	1530.630
65.000	9828.000	1530.510
64.000	9832.000	1530.630
64.000	9830.000	1530.510
79.000	9841.000	1530.630
65.000	9848.000	1530.510
63.000	9850.000	1530.630
64.000	9857.000	1530.760
65.000	9856.000	1530.630
63.000	9861.000	1530.630
64.000	9871.000	1530.760
64.000	9873.000	1530.630
64.000	9876.000	1530.630
64.000	9882.000	1530.630
64.000	9884.000	1530.510
64.000	9883.000	1530.630
81.000	9886.000	1530.630
94.000	9897.000	1530.630
33.000	9900.000	1530.630
63.000	9898.000	1530.760
65.000	9904.000	1530.630
67.000	9910.000	1530.760
60.000	9910.000	1530.760
65.000	9914.000	1530.630
64.000	9914.000	1530.630
63.000	9917.000	1530.630
65.000	9926.000	1530.630
63.000	9931.000	1530.630
80.000	9932.000	1530.760
64.000	9933.000	1530.760
64.000	9934.000	1530.760
65.000	9939.000	1530.760
63.000	9943.000	1530.760
65.000	9940.000	1530.630
63.000	9950.000	1530.760
64.000	9954.000	1530.890
65.000	9953.000	1530.760
64.000	9950.000	1530.760
63.000	9957.000	1530.760
64.000	9962.000	1530.630
80.000	9972.000	1530.760
64.000	9966.000	1530.760
64.000	9974.000	1530.760
63.000	9975.000	1530.760
64.000	9977.000	1530.760
65.000	9979.000	1530.890
64.000	9983.000	1530.760
63.000	9989.000	1530.760
65.000	9992.000	1530.760
64.000	9995.000	1530.760
64.000	9998.000	1530.760
64.000	10000.000	1530.630
80.000	10005.000	1530.760
63.000	10001.000	1530.890
65.000	10008.000	1530.760
64.000	10017.000	1530.630
65.000	10016.000	1530.760
62.000	10022.000	1530.760
79.000	10023.000	1530.760
50.000	10029.000	1530.760
70.000	10033.000	1530.890
57.000	10034.000	1530.760
64.000	10034.000	1530.890
65.000	10038.000	1530.630
79.000	10039.000	1530.760
65.000	10045.000	1530.890
63.000	10045.000	1530.890
64.000	10049.000	1530.890
65.000	10051.000	1530.630
63.000	10055.000	1530.890
64.000	10055.000	1530.890
64.000	10056.000	1530.890
64.000	10063.000	1530.760
64.000	10061.000	1530.890
65.000	10065.000	1530.890
63.000	10068.000	1530.760
64.000	10065.000	1530.890
79.000	10067.000	1530.890
65.000	10073.000	1530.890
63.000	10074.000	1530.890
66.000	10076.000	1530.890
63.000	10076.000	1530.760
64.000	10083.000	1530.890
64.000	10084.000	1530.760
63.000	10082.000	1530.760
64.000	10085.000	1530.760
65.000	10089.000	1530.760
63.000	10088.000	1530.890
65.000	10094.000	1530.760
79.000	10098.000	1530.760
64.000	10112.000	1530.890
64.000	10125.000	1530.890
65.000	10141.000	1530.760
64.000	10160.000	1530.890
64.000	10174.000	1530.890
63.000	10192.000	1530.890
64.000	10207.000	1530.890
65.000	10219.000	1530.890
63.000	10239.000	1530.890
64.000	10253.000	1530.890
64.000	10274.000	1530.760
80.000	10295.000	1531.020
64.000	10308.000	1530.890
64.000	10329.000	1530.760
64.000	10351.000	1531.020
64.000	10371.000	1530.890
65.000	10391.000	1530.760
63.000	10413.000	1530.890
64.000	10433.000	1530.890
64.000	10457.000	1531.020
64.000	10483.000	1530.890
64.000	10502.000	1530.890
64.000	10526.000	1530.890
80.000	10550.000	1531.020
64.000	10577.000	1530.890
63.000	10604.000	1530.890
65.000	10627.000	1530.890
63.000	10657.000	1530.890
64.000	10684.000	1530.890
64.000	10713.000	1530.890
65.000	10742.000	1530.890
63.000	10769.000	1530.890
65.000	10805.000	1531.020
63.000	10838.000	1530.760
65.000	10870.000	1530.890
79.000	10910.000	1530.890
65.000	10942.000	1530.890
64.000	10985.000	1530.890
63.000	11017.000	1530.890
64.000	11059.000	1530.890
64.000	11104.000	1531.020
64.000	11147.000	1531.020
64.000	11184.000	1531.020
64.000	11231.000	1530.890
65.000	11279.000	1531.020
63.000	11322.000	1531.020
64.000	11370.000	1531.140
80.000	11407.000	1531.270
64.000	11457.000	1531.660
64.000	11503.000	1532.040
63.000	11552.000	1532.550
65.000	11610.000	1533.190
64.000	11669.000	1533.830
63.000	11736.000	1534.600
64.000	11814.000	1535.490
65.000	11899.000	1536.390
64.000	11992.000	1537.660
63.000	12102.000	1538.940
65.000	12204.000	1540.220
80.000	12294.000	1541.630
64.000	12374.000	1543.290
63.000	12423.000	1544.950
65.000	12421.000	1546.740
63.000	12399.000	1548.530
64.000	12396.000	1550.570
64.000	12409.000	1552.750
64.000	12427.000	1555.170
64.000	12494.000	1557.860
64.000	12587.000	1560.410
64.000	12701.000	1563.100
64.000	12811.000	1565.910
80.000	12930.000	1568.720
64.000	13053.000	1571.410
64.000	13223.000	1574.220
64.000	13413.000	1576.770
64.000	13637.000	1579.330
64.000	14286.000	1581.760
64.000	14585.000	1584.060
64.000	14871.000	1586.230
64.000	15125.000	1588.150
64.000	15387.000	1589.940
63.000	15669.000	1591.730
65.000	15788.000	1593.130
80.000	15869.000	1594.280
64.000	15866.000	1593.390
64.000	15883.000	1590.960
63.000	15956.000	1588.020
64.000	16013.000	1584.830
64.000	15992.000	1581.250
64.000	15924.000	1577.410
65.000	15847.000	1573.200
63.000	15732.000	1569.490
64.000	15599.000	1565.650
64.000	15421.000	1561.820
64.000	15125.000	1558.240
81.000	14688.000	1554.920
63.000	14117.000	1551.850
64.000	13313.000	1549.170
64.000	12320.000	1546.740
64.000	11530.000	1544.690
64.000	10976.000	1542.780
64.000	10591.000	1541.240
64.000	10317.000	1539.840
64.000	10128.000	1538.560
64.000	9975.000	1536.900
64.000	9833.000	1535.490
64.000	9788.000	1534.600
80.000	9794.000	1533.960
63.000	9797.000	1533.190
65.000	9819.000	1532.550
64.000	9850.000	1532.040
63.000	9872.000	1531.400
64.000	9904.000	1530.890
64.000	9924.000	1530.510
64.000	9958.000	1530.380
64.000	9977.000	1530.120
65.000	9995.000	1529.870
63.000	10012.000	1529.740
64.000	10026.000	1529.610
81.000	10038.000	1529.740
63.000	10049.000	1529.740
64.000	10037.000	1529.870
65.000	10038.000	1529.990
63.000	10050.000	1529.990
64.000	10076.000	1529.990
64.000	10090.000	1530.120
64.000	10089.000	1530.120
64.000	10076.000	1529.990
64.000	10066.000	1530.250
64.000	10053.000	1530.250
64.000	10038.000	1530.250
80.000	10027.000	1530.120
64.000	10007.000	1530.250
64.000	9994.000	1530.250
63.000	9981.000	1530.250
65.000	9964.000	1530.380
63.000	9951.000	1530.250
65.000	9930.000	1530.380
64.000	9918.000	1530.380
63.000	9907.000	1530.510
64.000	9890.000	1530.380
65.000	9880.000	1530.380
63.000	9879.000	1530.380
81.000	9872.000	1530.510
64.000	9878.000	1530.510
64.000	9870.000	1530.380
63.000	9865.000	1530.380
64.000	9865.000	1530.510
64.000	9864.000	1530.510
64.000	9853.000	1530.510
64.000	9856.000	1530.510
65.000	9844.000	1530.510
64.000	9840.000	1530.510
63.000	9838.000	1530.510
64.000	9830.000	1530.510
80.000	9827.000	1530.510
64.000	9820.000	1530.510
64.000	9817.000	1530.510
63.000	9813.000	1530.510
64.000	9805.000	1530.630
65.000	9805.000	1530.630
64.000	9800.000	1530.630
64.000	9793.000	1530.630
63.000	9788.000	1530.630
64.000	9788.000	1530.630
64.000	9783.000	1530.630
65.000	9782.000	1530.630
79.000	9772.000	1530.630
64.000	9770.000	1530.630
64.000	9770.000	1530.630
64.000	9773.000	1530.630
64.000	9788.000	1530.630
65.000	9794.000	1530.630
64.000	9803.000	1530.630
63.000	9806.000	1530.510
65.000	9814.000	1530.630
63.000	9815.000	1530.630
65.000	9822.000	1530.760
63.000	9829.000	1530.630
80.000	9832.000	1530.630
64.000	9850.000	1530.630
64.000	9860.000	1530.630
64.000	9866.000	1530.760
64.000	9875.000	1530.630
63.000	9878.000	1530.630
65.000	9887.000	1530.760
63.000	9892.000	1530.760
65.000	9894.000	1530.760
64.000	9904.000	1530.760
63.000	9908.000	1530.760
64.000	9911.000	1530.760
81.000	9913.000	1530.760
64.000	9917.000	1530.760
64.000	9919.000	1530.760
63.000	9925.000	1530.760
64.000	9925.000	1530.630
65.000	9934.000	1530.760
63.000	9937.000	1530.760
65.000	9939.000	1530.760
64.000	9944.000	1530.760
63.000	9948.000	1530.760
64.000	9954.000	1530.890
65.000	9954.000	1530.760
64.000	9955.000	1530.760
79.000	9960.000	1530.760
65.000	9965.000	1530.760
64.000	9968.000	1530.760
63.000	9971.000	1530.890
65.000	9974.000	1530.890
63.000	9974.000	1530.760
64.000	9977.000	1530.760
65.000	9986.000	1530.890
63.000	9985.000	1530.760
64.000	9986.000	1530.760
64.000	9994.000	1530.890
64.000	9995.000	1530.760
80.000	9996.000	1530.890
64.000	10000.000	1530.760
64.000	10003.000	1530.760
64.000	10003.000	1530.890
64.000	10013.000	1530.890
63.000	10010.000	1530.890
64.000	10019.000	1530.760
64.000	10022.000	1530.890
64.000	10025.000	1530.890
65.000	10026.000	1530.890
64.000	10029.000	1530.890
64.000	10033.000	1530.890
79.000	10034.000	1530.890
64.000	10034.000	1530.890
64.000	10042.000	1530.890
64.000	10043.000	1530.890
65.000	10048.000	1530.890
64.000	10044.000	1530.890
63.000	10049.000	1530.890
65.000	10052.000	1530.760
64.000	10056.000	1530.760
63.000	10059.000	1530.890
64.000	10059.000	1530.760
65.000	10064.000	1530.760
79.000	10065.000	1531.020
64.000	10066.000	1530.890
65.000	10071.000	1530.890
63.000	10067.000	1530.890
64.000	10072.000	1530.890
63.000	10072.000	1531.020
65.000	10076.000	1530.890
64.000	10078.000	1530.890
64.000	10074.000	1530.890
64.000	10075.000	1530.890
63.000	10081.000	1531.020
64.000	10081.000	1531.020
81.000	10086.000	1530.890
63.000	10086.000	1530.890
64.000	10086.000	1531.020
64.000	10087.000	1531.020
65.000	10091.000	1530.890
63.000	10089.000	1530.890
64.000	10090.000	1531.020
65.000	10093.000	1530.890
63.000	10091.000	1531.020
65.000	10093.000	1531.020
63.000	10098.000	1531.020
64.000	10095.000	1530.890
81.000	10100.000	1531.020
63.000	10100.000	1531.020
64.000	10116.000	1531.020
65.000	10133.000	1531.020
63.000	10142.000	1531.020
65.000	10160.000	1531.020
63.000	10173.000	1530.890
64.000	10188.000	1531.020
64.000	10208.000	1531.020
63.000	10222.000	1531.020
67.000	10237.000	1531.020
62.000	10253.000	1531.020
80.000	10276.000	1531.020
64.000	10294.000	1531.020
64.000	10310.000	1531.140
63.000	10326.000	1531.020
65.000	10349.000	1531.020
64.000	10368.000	1531.020
65.000	10388.000	1531.020
62.000	10407.000	1531.020
64.000	10433.000	1531.020
65.000	10453.000	1531.020
64.000	10475.000	1531.020
63.000	10500.000	1531.020
82.000	10524.000	1531.020
63.000	10548.000	1531.140
63.000	10575.000	1531.020
64.000	10602.000	1531.020
65.000	10626.000	1531.140
63.000	10651.000	1531.140
64.000	10685.000	1531.020
64.000	10707.000	1531.140
64.000	10741.000	1531.140
64.000	10769.000	1531.020
64.000	10803.000	1531.020
64.000	10835.000	1531.020
80.000	10869.000	1531.140
64.000	10915.000	1530.890
64.000	10947.000	1531.140
65.000	10984.000	1531.020
63.000	11020.000	1531.140
64.000	11058.000	1531.020
64.000	11092.000	1531.020
65.000	11145.000	1531.020
62.000	11187.000	1531.020
64.000	11229.000	1531.020
65.000	11277.000	1531.140
63.000	11320.000	1531.270
81.000	11359.000	1531.140
65.000	11405.000	1531.140
63.000	11452.000	1531.780
63.000	11492.000	1531.910
64.000	11548.000	1532.550
64.000	11599.000	1532.930
64.000	11667.000	1533.700
64.000	11728.000	1534.470
64.000	11802.000	1535.360
64.000	11891.000	1536.260
65.000	11982.000	1537.150
64.000	12091.000	1538.430
79.000	12195.000	1539.840
65.000	12289.000	1541.240
63.000	12369.000	1542.780
