Loop Time (ms)	IR (16 bit)	Force (N)
258.000	10376.000	1532.300
71.000	10374.000	1532.420
64.000	10377.000	1532.300
64.000	10378.000	1532.300
64.000	10373.000	1532.420
64.000	10373.000	1532.300
64.000	10372.000	1532.300
64.000	10379.000	1532.300
64.000	10379.000	1532.300
64.000	10374.000	1532.420
80.000	10377.000	1532.420
64.000	10374.000	1532.420
64.000	10375.000	1532.300
64.000	10375.000	1532.420
63.000	10379.000	1532.300
64.000	10380.000	1532.420
64.000	10378.000	1532.420
64.000	10379.000	1532.300
65.000	10373.000	1532.300
63.000	10377.000	1532.300
64.000	10375.000	1532.300
64.000	10379.000	1532.300
80.000	10376.000	1532.300
64.000	10381.000	1532.420
64.000	10379.000	1532.420
64.000	10381.000	1532.420
64.000	10379.000	1532.420
64.000	10378.000	1532.420
64.000	10380.000	1532.420
64.000	10383.000	1532.420
64.000	10382.000	1532.300
64.000	10381.000	1532.300
64.000	10389.000	1532.300
63.000	10406.000	1532.300
80.000	10426.000	1532.420
65.000	10438.000	1532.300
64.000	10450.000	1532.420
64.000	10469.000	1532.300
64.000	10481.000	1532.300
64.000	10498.000	1532.300
63.000	10515.000	1532.300
64.000	10532.000	1532.300
64.000	10545.000	1532.420
64.000	10567.000	1532.420
64.000	10582.000	1532.420
64.000	10607.000	1532.420
80.000	10618.000	1532.420
64.000	10640.000	1532.420
65.000	10661.000	1532.420
64.000	10682.000	1532.420
63.000	10702.000	1532.300
64.000	10728.000	1532.420
64.000	10746.000	1532.300
64.000	10773.000	1532.300
65.000	10796.000	1532.300
62.000	10822.000	1532.420
64.000	10851.000	1532.420
65.000	10872.000	1532.550
80.000	10901.000	1532.420
64.000	10933.000	1532.420
63.000	10960.000	1532.420
65.000	10985.000	1532.420
64.000	11013.000	1532.300
64.000	11046.000	1532.420
64.000	11083.000	1532.300
64.000	11113.000	1532.300
64.000	11155.000	1532.300
63.000	11186.000	1532.420
65.000	11224.000	1532.420
63.000	11260.000	1532.420
81.000	11300.000	1532.420
64.000	11338.000	1532.300
63.000	11380.000	1532.420
64.000	11424.000	1532.300
64.000	11467.000	1532.300
64.000	11512.000	1532.420
65.000	11554.000	1532.300
63.000	11605.000	1532.420
64.000	11656.000	1532.420
65.000	11697.000	1532.420
63.000	11747.000	1532.810
64.000	11795.000	1533.190
80.000	11849.000	1533.570
64.000	11903.000	1534.080
64.000	11965.000	1534.720
64.000	12028.000	1535.360
64.000	12113.000	1536.260
64.000	12191.000	1537.150
64.000	12284.000	1538.170
64.000	12386.000	1539.450
63.000	12493.000	1540.730
65.000	12602.000	1542.140
64.000	12699.000	1543.540
64.000	12779.000	1545.200
79.000	12801.000	1545.840
64.000	12792.000	1544.310
65.000	12689.000	1542.780
63.000	12541.000	1541.240
64.000	12417.000	1539.960
64.000	12314.000	1538.690
65.000	12224.000	1537.660
63.000	12141.000	1536.770
65.000	12063.000	1535.750
63.000	11990.000	1534.980
64.000	11932.000	1534.340
64.000	11875.000	1533.830
65.000	11825.000	1533.450
79.000	11774.000	1533.060
64.000	11740.000	1532.930
64.000	11690.000	1532.680
65.000	11639.000	1532.810
63.000	11590.000	1532.680
65.000	11543.000	1532.680
63.000	11497.000	1532.680
64.000	11450.000	1532.680
65.000	11416.000	1532.550
63.000	11374.000	1532.810
64.000	11332.000	1532.680
63.000	11295.000	1532.680
80.000	11253.000	1532.680
65.000	11219.000	1532.680
63.000	11185.000	1532.680
65.000	11146.000	1532.680
64.000	11118.000	1532.680
64.000	11087.000	1532.680
63.000	11049.000	1532.550
64.000	11017.000	1532.680
65.000	10987.000	1532.550
64.000	10960.000	1532.680
64.000	10934.000	1532.680
63.000	10909.000	1532.680
81.000	10882.000	1532.550
63.000	10857.000	1532.680
65.000	10832.000	1532.680
64.000	10804.000	1532.550
63.000	10786.000	1532.680
65.000	10760.000	1532.680
64.000	10738.000	1532.680
64.000	10713.000	1532.680
63.000	10700.000	1532.680
64.000	10678.000	1532.680
64.000	10659.000	1532.680
64.000	10638.000	1532.680
80.000	10618.000	1532.680
64.000	10606.000	1532.550
64.000	10588.000	1532.680
64.000	10568.000	1532.680
64.000	10554.000	1532.680
64.000	10540.000	1532.680
64.000	10521.000	1532.680
64.000	10504.000	1532.680
64.000	10494.000	1532.680
64.000	10475.000	1532.550
64.000	10463.000	1532.680
63.000	10451.000	1532.680
80.000	10437.000	1532.680
65.000	10421.000	1532.680
64.000	10407.000	1532.810
64.000	10407.000	1532.680
64.000	10416.000	1532.680
63.000	10418.000	1532.680
64.000	10417.000	1532.550
65.000	10416.000	1532.680
64.000	10415.000	1532.680
64.000	10418.000	1532.680
64.000	10415.000	1532.680
64.000	10417.000	1532.810
80.000	10418.000	1532.680
63.000	10419.000	1532.680
64.000	10421.000	1532.680
65.000	10420.000	1532.680
63.000	10416.000	1532.810
64.000	10420.000	1532.680
64.000	10423.000	1532.680
64.000	10421.000	1532.810
64.000	10422.000	1532.680
63.000	10420.000	1532.680
65.000	10421.000	1532.550
64.000	10420.000	1532.680
80.000	10423.000	1532.550
64.000	10421.000	1532.680
64.000	10420.000	1532.680
64.000	10424.000	1532.680
64.000	10424.000	1532.550
64.000	10423.000	1532.810
64.000	10423.000	1532.680
64.000	10422.000	1532.680
63.000	10424.000	1532.680
65.000	10422.000	1532.680
63.000	10424.000	1532.810
64.000	10424.000	1532.680
80.000	10425.000	1532.680
65.000	10425.000	1532.810
63.000	10422.000	1532.680
64.000	10425.000	1532.680
64.000	10425.000	1532.680
64.000	10426.000	1532.680
64.000	10428.000	1532.550
64.000	10429.000	1532.550
64.000	10425.000	1532.680
64.000	10427.000	1532.550
64.000	10426.000	1532.680
64.000	10426.000	1532.680
80.000	10425.000	1532.810
64.000	10425.000	1532.680
64.000	10427.000	1532.680
64.000	10427.000	1532.680
64.000	10428.000	1532.550
64.000	10426.000	1532.810
63.000	10431.000	1532.680
64.000	10430.000	1532.810
65.000	10428.000	1532.680
64.000	10428.000	1532.680
63.000	10425.000	1532.810
64.000	10426.000	1532.680
80.000	10430.000	1532.680
64.000	10430.000	1532.680
65.000	10430.000	1532.680
64.000	10426.000	1532.550
63.000	10429.000	1532.680
64.000	10431.000	1532.680
64.000	10428.000	1532.550
65.000	10428.000	1532.680
63.000	10433.000	1532.680
65.000	10431.000	1532.680
63.000	10432.000	1532.680
64.000	10428.000	1532.680
80.000	10434.000	1532.810
65.000	10429.000	1532.680
64.000	10431.000	1532.810
63.000	10429.000	1532.550
64.000	10432.000	1532.810
64.000	10429.000	1532.680
64.000	10428.000	1532.680
64.000	10432.000	1532.810
64.000	10430.000	1532.810
64.000	10433.000	1532.680
64.000	10431.000	1532.680
63.000	10431.000	1532.810
81.000	10430.000	1532.680
64.000	10431.000	1532.680
64.000	10430.000	1532.680
64.000	10434.000	1532.680
64.000	10433.000	1532.680
64.000	10434.000	1532.810
63.000	10433.000	1532.810
65.000	10432.000	1532.680
64.000	10438.000	1532.810
63.000	10434.000	1532.810
64.000	10435.000	1532.810
65.000	10430.000	1532.680
79.000	10435.000	1532.810
64.000	10432.000	1532.680
64.000	10437.000	1532.680
64.000	10451.000	1532.810
64.000	10463.000	1532.810
64.000	10476.000	1532.810
64.000	10493.000	1532.680
64.000	10508.000	1532.680
64.000	10526.000	1532.680
64.000	10540.000	1532.810
64.000	10553.000	1532.680
64.000	10573.000	1532.680
80.000	10590.000	1532.680
64.000	10607.000	1532.680
64.000	10626.000	1532.680
63.000	10641.000	1532.810
65.000	10660.000	1532.810
63.000	10681.000	1532.680
64.000	10704.000	1532.680
65.000	10717.000	1532.810
64.000	10738.000	1532.680
64.000	10763.000	1532.810
64.000	10787.000	1532.680
63.000	10806.000	1532.680
80.000	10829.000	1532.810
65.000	10856.000	1532.680
64.000	10886.000	1532.680
63.000	10910.000	1532.680
65.000	10932.000	1532.680
63.000	10962.000	1532.680
65.000	10993.000	1532.680
63.000	11023.000	1532.680
65.000	11052.000	1532.680
63.000	11086.000	1532.810
64.000	11120.000	1532.810
65.000	11154.000	1532.680
79.000	11179.000	1532.680
64.000	11217.000	1532.810
64.000	11253.000	1532.810
64.000	11286.000	1532.810
64.000	11328.000	1532.680
64.000	11368.000	1532.680
64.000	11405.000	1532.680
64.000	11448.000	1532.810
64.000	11490.000	1532.810
64.000	11540.000	1532.810
64.000	11581.000	1532.810
64.000	11633.000	1532.810
79.000	11680.000	1532.680
65.000	11726.000	1532.810
63.000	11771.000	1532.930
65.000	11823.000	1533.190
63.000	11871.000	1533.570
65.000	11928.000	1534.080
64.000	11980.000	1534.600
63.000	12041.000	1535.230
64.000	12115.000	1536.000
65.000	12191.000	1536.900
64.000	12281.000	1537.790
63.000	12369.000	1538.810
65.000	12478.000	1540.090
80.000	12589.000	1541.500
63.000	12700.000	1542.780
64.000	12796.000	1544.310
64.000	12865.000	1546.100
64.000	12873.000	1545.590
64.000	12830.000	1543.800
64.000	12679.000	1542.260
64.000	12544.000	1540.860
64.000	12434.000	1539.580
64.000	12334.000	1538.560
64.000	12253.000	1537.540
63.000	12170.000	1536.510
81.000	12094.000	1535.750
63.000	12029.000	1534.980
65.000	11966.000	1534.600
63.000	11915.000	1533.830
65.000	11858.000	1533.570
64.000	11815.000	1533.190
64.000	11768.000	1533.060
64.000	11720.000	1532.930
64.000	11674.000	1532.930
63.000	11625.000	1532.930
64.000	11574.000	1532.930
65.000	11527.000	1532.930
80.000	11485.000	1532.810
63.000	11448.000	1532.680
65.000	11405.000	1532.810
64.000	11362.000	1532.810
63.000	11324.000	1532.810
64.000	11292.000	1532.810
65.000	11251.000	1532.810
64.000	11220.000	1532.810
63.000	11186.000	1532.810
64.000	11148.000	1532.930
64.000	11122.000	1532.810
64.000	11084.000	1532.810
79.000	11053.000	1532.810
65.000	11020.000	1532.680
64.000	10992.000	1532.810
64.000	10972.000	1532.810
64.000	10944.000	1532.810
64.000	10915.000	1532.810
64.000	10888.000	1532.810
64.000	10861.000	1532.810
64.000	10841.000	1532.810
64.000	10815.000	1532.680
63.000	10792.000	1532.680
64.000	10763.000	1532.810
81.000	10746.000	1532.810
64.000	10724.000	1532.680
63.000	10705.000	1532.810
64.000	10684.000	1532.680
64.000	10669.000	1532.930
64.000	10649.000	1532.930
65.000	10628.000	1532.810
64.000	10613.000	1532.810
63.000	10596.000	1532.810
64.000	10579.000	1532.810
65.000	10560.000	1532.680
63.000	10548.000	1532.810
80.000	10528.000	1532.680
64.000	10519.000	1532.810
64.000	10505.000	1532.680
64.000	10491.000	1532.810
64.000	10476.000	1532.810
64.000	10463.000	1532.810
64.000	10449.000	1532.810
64.000	10441.000	1532.810
64.000	10444.000	1532.680
64.000	10448.000	1532.680
64.000	10447.000	1532.810
64.000	10448.000	1532.810
80.000	10451.000	1532.810
64.000	10451.000	1532.930
64.000	10453.000	1532.810
64.000	10450.000	1532.810
64.000	10451.000	1532.810
64.000	10447.000	1532.810
64.000	10452.000	1532.810
64.000	10452.000	1532.810
64.000	10450.000	1532.810
64.000	10452.000	1532.810
63.000	10447.000	1532.810
64.000	10451.000	1532.930
80.000	10451.000	1532.680
64.000	10453.000	1532.810
65.000	10451.000	1532.810
63.000	10451.000	1532.810
64.000	10450.000	1532.930
65.000	10452.000	1532.810
63.000	10453.000	1532.810
64.000	10455.000	1532.810
64.000	10451.000	1532.810
64.000	10452.000	1532.680
64.000	10452.000	1532.810
64.000	10455.000	1532.810
80.000	10455.000	1532.810
64.000	10451.000	1532.810
64.000	10453.000	1532.810
64.000	10455.000	1532.810
64.000	10456.000	1532.810
64.000	10457.000	1532.810
63.000	10450.000	1532.810
65.000	10454.000	1532.810
64.000	10453.000	1532.810
64.000	10456.000	1532.810
63.000	10458.000	1532.810
64.000	10459.000	1532.810
80.000	10453.000	1532.810
65.000	10458.000	1532.810
64.000	10454.000	1532.810
63.000	10453.000	1532.810
64.000	10453.000	1532.810
65.000	10456.000	1532.810
64.000	10455.000	1532.930
63.000	10454.000	1532.810
64.000	10457.000	1532.810
64.000	10455.000	1532.810
64.000	10455.000	1532.810
64.000	10460.000	1532.810
80.000	10463.000	1532.810
64.000	10456.000	1532.810
64.000	10457.000	1532.810
64.000	10454.000	1532.680
64.000	10456.000	1532.810
64.000	10459.000	1532.810
64.000	10454.000	1532.810
63.000	10460.000	1532.810
65.000	10458.000	1532.810
63.000	10457.000	1532.810
64.000	10460.000	1532.810
64.000	10462.000	1532.930
81.000	10456.000	1532.810
64.000	10460.000	1532.810
64.000	10456.000	1532.810
63.000	10458.000	1532.810
64.000	10461.000	1532.930
64.000	10462.000	1532.810
64.000	10460.000	1532.810
64.000	10459.000	1532.810
64.000	10458.000	1532.810
65.000	10459.000	1532.810
63.000	10458.000	1532.810
65.000	10462.000	1532.930
79.000	10460.000	1532.810
64.000	10462.000	1532.810
64.000	10459.000	1532.810
64.000	10461.000	1532.930
64.000	10459.000	1532.810
65.000	10461.000	1532.810
63.000	10456.000	1532.810
64.000	10458.000	1532.930
64.000	10459.000	1532.810
64.000	10458.000	1532.810
64.000	10464.000	1532.810
64.000	10460.000	1532.810
80.000	10464.000	1532.810
64.000	10459.000	1532.930
63.000	10465.000	1532.810
65.000	10455.000	1532.810
64.000	10457.000	1532.810
63.000	10457.000	1532.810
65.000	10465.000	1532.810
63.000	10470.000	1532.810
64.000	10479.000	1532.930
64.000	10497.000	1532.810
64.000	10510.000	1532.680
64.000	10526.000	1532.930
80.000	10541.000	1532.930
64.000	10552.000	1532.810
65.000	10572.000	1532.930
64.000	10589.000	1532.930
64.000	10606.000	1532.810
63.000	10623.000	1532.810
64.000	10640.000	1533.060
64.000	10659.000	1532.930
64.000	10676.000	1532.810
64.000	10691.000	1532.930
64.000	10716.000	1532.930
64.000	10735.000	1532.930
80.000	10755.000	1532.810
65.000	10775.000	1532.930
63.000	10798.000	1532.680
64.000	10823.000	1532.810
64.000	10847.000	1532.930
64.000	10867.000	1532.810
64.000	10896.000	1532.810
64.000	10922.000	1532.810
64.000	10952.000	1532.930
64.000	10979.000	1532.930
64.000	11001.000	1532.930
63.000	11034.000	1532.930
65.000	11064.000	1532.810
80.000	11101.000	1532.930
63.000	11126.000	1532.810
65.000	11162.000	1532.930
64.000	11193.000	1532.810
64.000	11230.000	1532.810
64.000	11261.000	1532.810
63.000	11302.000	1532.810
64.000	11331.000	1533.060
64.000	11369.000	1532.930
64.000	11412.000	1532.810
65.000	11453.000	1532.930
64.000	11486.000	1532.810
79.000	11533.000	1532.930
64.000	11582.000	1532.810
64.000	11636.000	1532.930
64.000	11674.000	1532.810
64.000	11729.000	1532.930
65.000	11779.000	1532.930
63.000	11815.000	1533.190
64.000	11866.000	1533.450
64.000	11923.000	1533.960
64.000	11980.000	1534.340
65.000	12039.000	1534.980
63.000	12107.000	1535.620
80.000	12175.000	1536.510
64.000	12256.000	1537.280
64.000	12346.000	1538.300
64.000	12444.000	1539.450
63.000	12553.000	1540.730
64.000	12670.000	1542.010
65.000	12771.000	1543.540
64.000	12868.000	1545.080
64.000	12912.000	1546.480
63.000	12906.000	1545.460
65.000	12853.000	1543.800
64.000	12698.000	1542.260
80.000	12565.000	1540.860
63.000	12456.000	1539.580
65.000	12362.000	1538.560
64.000	12277.000	1537.540
64.000	12196.000	1536.640
63.000	12122.000	1535.750
65.000	12055.000	1534.980
63.000	11995.000	1534.340
64.000	11941.000	1533.830
64.000	11884.000	1533.570
64.000	11837.000	1533.190
64.000	11799.000	1533.060
80.000	11748.000	1532.930
64.000	11700.000	1532.930
64.000	11648.000	1532.930
64.000	11600.000	1533.060
64.000	11558.000	1532.930
64.000	11508.000	1532.930
64.000	11470.000	1532.930
64.000	11425.000	1532.930
64.000	11390.000	1532.810
64.000	11356.000	1532.810
64.000	11313.000	1532.930
63.000	11276.000	1532.930
81.000	11244.000	1532.810
64.000	11210.000	1532.810
63.000	11176.000	1532.810
65.000	11142.000	1532.810
64.000	11107.000	1533.060
63.000	11082.000	1532.930
65.000	11050.000	1532.810
64.000	11015.000	1532.930
63.000	10989.000	1532.930
64.000	10962.000	1532.930
65.000	10937.000	1532.810
63.000	10913.000	1532.810
81.000	10888.000	1532.810
63.000	10861.000	1532.930
65.000	10837.000	1532.930
63.000	10817.000	1532.810
65.000	10792.000	1532.930
63.000	10769.000	1532.930
64.000	10747.000	1532.810
64.000	10728.000	1532.930
64.000	10709.000	1532.930
64.000	10688.000	1532.930
64.000	10673.000	1532.930
64.000	10652.000	1532.930
80.000	10631.000	1532.810
63.000	10622.000	1532.930
64.000	10601.000	1532.810
65.000	10588.000	1532.930
64.000	10576.000	1532.930
64.000	10555.000	1532.930
64.000	10541.000	1532.930
64.000	10528.000	1532.930
63.000	10516.000	1532.810
65.000	10502.000	1532.930
64.000	10484.000	1532.810
64.000	10473.000	1532.930
79.000	10467.000	1532.930
65.000	10473.000	1532.810
64.000	10474.000	1532.810
63.000	10476.000	1532.930
65.000	10475.000	1532.930
63.000	10478.000	1532.930
64.000	10473.000	1532.810
65.000	10473.000	1532.930
63.000	10478.000	1532.810
64.000	10473.000	1532.930
64.000	10478.000	1532.810
64.000	10479.000	1532.930
80.000	10472.000	1532.810
64.000	10479.000	1532.930
64.000	10474.000	1532.930
64.000	10478.000	1532.810
64.000	10476.000	1532.810
63.000	10476.000	1532.930
65.000	10474.000	1532.810
64.000	10478.000	1532.930
64.000	10477.000	1532.810
64.000	10480.000	1532.810
64.000	10474.000	1532.930
64.000	10476.000	1532.930
79.000	10476.000	1532.930
65.000	10480.000	1532.810
64.000	10480.000	1532.930
64.000	10480.000	1532.930
63.000	10477.000	1532.930
65.000	10476.000	1532.930
64.000	10477.000	1532.930
63.000	10479.000	1533.060
65.000	10480.000	1532.930
63.000	10476.000	1532.810
65.000	10476.000	1532.810
63.000	10480.000	1532.930
80.000	10482.000	1532.930
64.000	10481.000	1532.930
65.000	10478.000	1532.930
63.000	10480.000	1532.930
64.000	10479.000	1532.810
64.000	10480.000	1532.930
64.000	10476.000	1532.930
64.000	10478.000	1532.930
64.000	10485.000	1532.930
64.000	10479.000	1532.810
64.000	10481.000	1532.930
63.000	10481.000	1532.930
81.000	10481.000	1532.930
64.000	10483.000	1532.930
63.000	10481.000	1532.930
64.000	10480.000	1532.930
65.000	10481.000	1532.930
64.000	10482.000	1532.810
63.000	10478.000	1532.930
65.000	10476.000	1532.930
64.000	10475.000	1532.930
63.000	10482.000	1532.810
65.000	10485.000	1532.930
63.000	10484.000	1532.930
81.000	10482.000	1532.810
63.000	10483.000	1532.930
64.000	10483.000	1532.810
64.000	10481.000	1532.930
64.000	10483.000	1532.810
65.000	10486.000	1532.930
63.000	10483.000	1532.810
64.000	10482.000	1532.810
64.000	10483.000	1533.060
64.000	10477.000	1532.930
64.000	10480.000	1532.810
64.000	10482.000	1532.930
80.000	10484.000	1532.810
64.000	10485.000	1532.930
64.000	10477.000	1532.930
64.000	10483.000	1532.930
64.000	10486.000	1532.810
64.000	10486.000	1532.930
64.000	10485.000	1532.810
64.000	10486.000	1532.810
63.000	10486.000	1532.930
65.000	10486.000	1532.930
64.000	10485.000	1533.060
63.000	10486.000	1532.930
65.000	10484.000	1533.060
80.000	10487.000	1533.060
64.000	10483.000	1533.060
63.000	10483.000	1532.930
64.000	10487.000	1532.810
64.000	10486.000	1532.930
64.000	10485.000	1532.930
64.000	10485.000	1532.930
65.000	10485.000	1532.930
63.000	10486.000	1532.930
65.000	10486.000	1532.930
64.000	10488.000	1533.060
64.000	10498.000	1532.930
79.000	10513.000	1533.060
64.000	10523.000	1533.060
64.000	10538.000	1532.930
65.000	10551.000	1532.810
63.000	10564.000	1533.060
64.000	10584.000	1532.930
64.000	10599.000	1532.930
64.000	10619.000	1532.930
64.000	10633.000	1532.930
64.000	10648.000	1532.930
64.000	10668.000	1532.930
63.000	10687.000	1533.060
80.000	10702.000	1532.930
65.000	10730.000	1532.930
64.000	10739.000	1532.930
63.000	10765.000	1532.930
65.000	10785.000	1532.810
64.000	10808.000	1532.930
63.000	10830.000	1532.930
65.000	10855.000	1532.930
63.000	10878.000	1532.680
64.000	10903.000	1532.930
65.000	10928.000	1532.930
63.000	10953.000	1533.060
80.000	10979.000	1532.930
65.000	11010.000	1532.930
63.000	11036.000	1532.930
64.000	11065.000	1533.060
64.000	11092.000	1533.060
64.000	11130.000	1532.930
65.000	11162.000	1532.930
63.000	11192.000	1533.060
64.000	11227.000	1532.930
64.000	11257.000	1533.060
64.000	11296.000	1532.930
64.000	11331.000	1532.930
80.000	11368.000	1533.060
63.000	11408.000	1532.810
65.000	11449.000	1532.930
64.000	11490.000	1533.060
64.000	11527.000	1532.810
