Loop Time (ms)	IR (16 bit)	Force (N)
270.000	11639.000	1540.480
55.000	11641.000	1540.480
63.000	11643.000	1540.480
64.000	11639.000	1540.480
64.000	11642.000	1540.480
64.000	11640.000	1540.480
64.000	11635.000	1540.480
80.000	11643.000	1540.600
64.000	11649.000	1540.600
63.000	11668.000	1540.480
65.000	11669.000	1540.600
63.000	11682.000	1540.600
65.000	11700.000	1540.480
64.000	11709.000	1540.480
64.000	11718.000	1540.600
63.000	11733.000	1540.600
64.000	11747.000	1540.480
64.000	11754.000	1540.480
65.000	11763.000	1540.600
79.000	11775.000	1540.480
64.000	11792.000	1540.600
64.000	11800.000	1540.600
64.000	11815.000	1540.600
65.000	11830.000	1540.480
63.000	11842.000	1540.600
64.000	11852.000	1540.600
64.000	11864.000	1540.480
63.000	11878.000	1540.600
65.000	11897.000	1540.730
64.000	11903.000	1540.480
64.000	11926.000	1540.600
80.000	11941.000	1540.600
63.000	11955.000	1540.600
65.000	11972.000	1540.600
64.000	11984.000	1540.600
63.000	12000.000	1540.600
65.000	12014.000	1540.600
64.000	12029.000	1540.600
64.000	12047.000	1540.600
64.000	12069.000	1540.600
63.000	12082.000	1540.600
65.000	12096.000	1540.600
63.000	12121.000	1540.600
80.000	12138.000	1540.480
64.000	12153.000	1540.600
64.000	12172.000	1540.600
64.000	12187.000	1540.600
64.000	12211.000	1540.480
65.000	12228.000	1540.600
63.000	12248.000	1540.600
64.000	12267.000	1540.600
64.000	12286.000	1540.480
64.000	12307.000	1540.600
64.000	12327.000	1540.480
63.000	12351.000	1540.480
81.000	12368.000	1540.480
64.000	12394.000	1540.600
64.000	12418.000	1540.600
64.000	12438.000	1540.600
64.000	12462.000	1540.600
63.000	12485.000	1540.480
65.000	12506.000	1540.600
63.000	12532.000	1540.600
65.000	12554.000	1540.350
64.000	12586.000	1540.600
64.000	12607.000	1540.600
63.000	12638.000	1540.480
80.000	12667.000	1540.600
65.000	12697.000	1540.600
63.000	12721.000	1540.600
65.000	12750.000	1540.600
64.000	12780.000	1540.730
63.000	12808.000	1540.600
64.000	12838.000	1540.480
64.000	12875.000	1540.480
64.000	12906.000	1540.600
64.000	12935.000	1540.480
64.000	12968.000	1540.600
64.000	13000.000	1540.600
80.000	13037.000	1540.600
64.000	13066.000	1540.730
64.000	13105.000	1540.600
64.000	13148.000	1540.730
63.000	13182.000	1540.860
64.000	13215.000	1540.860
64.000	13251.000	1540.860
64.000	13294.000	1541.110
65.000	13342.000	1541.240
64.000	13378.000	1541.370
64.000	13423.000	1541.500
63.000	13470.000	1541.630
81.000	13511.000	1541.750
64.000	13565.000	1542.010
63.000	13620.000	1542.260
64.000	13673.000	1542.520
64.000	13729.000	1542.780
64.000	13795.000	1543.030
64.000	13866.000	1543.290
64.000	13924.000	1543.540
64.000	13992.000	1543.930
64.000	14047.000	1544.310
64.000	14109.000	1544.690
64.000	14167.000	1545.200
80.000	14213.000	1545.720
64.000	14240.000	1546.100
64.000	14253.000	1546.610
64.000	14264.000	1546.990
63.000	14263.000	1547.630
65.000	14254.000	1548.140
64.000	14243.000	1548.780
64.000	14230.000	1549.290
63.000	14236.000	1549.810
65.000	14228.000	1550.440
64.000	14223.000	1551.080
64.000	14225.000	1551.850
80.000	14220.000	1552.620
63.000	14227.000	1553.130
65.000	14231.000	1553.900
64.000	14237.000	1554.660
63.000	14239.000	1555.430
64.000	14254.000	1556.320
65.000	14258.000	1557.090
63.000	14270.000	1557.990
65.000	14282.000	1558.620
63.000	14295.000	1559.650
64.000	14320.000	1560.540
64.000	14344.000	1561.560
80.000	14372.000	1562.590
64.000	14410.000	1563.480
64.000	14455.000	1564.500
64.000	14514.000	1565.530
63.000	14602.000	1566.680
64.000	14692.000	1567.700
65.000	14801.000	1568.850
63.000	14919.000	1570.130
65.000	15051.000	1571.280
63.000	15188.000	1572.560
65.000	15317.000	1573.960
63.000	15431.000	1575.240
81.000	15536.000	1576.650
64.000	15607.000	1577.920
63.000	15634.000	1579.330
64.000	15662.000	1580.740
64.000	15681.000	1582.270
64.000	15665.000	1583.800
64.000	15677.000	1585.210
65.000	15667.000	1586.490
63.000	15650.000	1588.020
64.000	15637.000	1585.850
64.000	15568.000	1587.130
65.000	15531.000	1588.530
79.000	15476.000	1590.070
64.000	15418.000	1591.600
64.000	15384.000	1593.130
63.000	15354.000	1594.410
65.000	15304.000	1595.820
63.000	15293.000	1597.350
65.000	15292.000	1598.630
64.000	15310.000	1599.780
64.000	15320.000	1601.060
63.000	15366.000	1604.000
65.000	15394.000	1605.790
64.000	15444.000	1606.810
80.000	15496.000	1607.700
64.000	15516.000	1608.470
64.000	15530.000	1609.240
63.000	15558.000	1610.010
64.000	15592.000	1610.770
64.000	15541.000	1609.490
64.000	15459.000	1608.090
64.000	15399.000	1606.680
65.000	15343.000	1605.280
63.000	15295.000	1603.870
64.000	15243.000	1602.080
64.000	15216.000	1600.420
80.000	15187.000	1598.630
64.000	15178.000	1596.580
64.000	15194.000	1594.540
64.000	15233.000	1592.490
64.000	15290.000	1590.190
64.000	15348.000	1585.340
64.000	15424.000	1582.530
63.000	15492.000	1579.590
65.000	15561.000	1576.900
63.000	15620.000	1573.960
64.000	15691.000	1570.890
64.000	15740.000	1568.080
80.000	15745.000	1565.270
65.000	15721.000	1562.200
64.000	15664.000	1559.260
64.000	15556.000	1556.450
63.000	15421.000	1553.380
65.000	15264.000	1550.440
63.000	15118.000	1547.760
64.000	14959.000	1544.950
64.000	14801.000	1542.390
64.000	14651.000	1540.090
64.000	14501.000	1537.790
64.000	14368.000	1535.750
80.000	14236.000	1533.960
64.000	14126.000	1532.420
63.000	14032.000	1531.140
65.000	13938.000	1529.870
64.000	13863.000	1528.970
64.000	13822.000	1528.210
64.000	13760.000	1527.440
63.000	13703.000	1527.050
65.000	13660.000	1526.930
64.000	13628.000	1526.540
64.000	13605.000	1526.420
63.000	13586.000	1526.420
80.000	13589.000	1526.540
64.000	13604.000	1526.800
64.000	13611.000	1526.930
64.000	13637.000	1527.050
65.000	13672.000	1527.440
63.000	13709.000	1527.570
65.000	13734.000	1527.950
63.000	13773.000	1528.080
64.000	13783.000	1528.460
64.000	13822.000	1528.720
64.000	13831.000	1529.100
64.000	13837.000	1529.360
80.000	13848.000	1529.610
64.000	13857.000	1529.990
64.000	13866.000	1530.250
64.000	13866.000	1530.630
64.000	13873.000	1530.890
63.000	13885.000	1531.140
64.000	13891.000	1531.530
65.000	13901.000	1531.780
63.000	13904.000	1532.170
65.000	13900.000	1532.420
64.000	13887.000	1532.810
63.000	13858.000	1533.060
80.000	13831.000	1533.450
64.000	13799.000	1533.700
64.000	13766.000	1533.830
64.000	13733.000	1534.210
65.000	13689.000	1534.600
64.000	13665.000	1534.850
63.000	13630.000	1534.980
64.000	13593.000	1535.490
64.000	13560.000	1535.620
65.000	13517.000	1536.000
63.000	13484.000	1536.130
64.000	13455.000	1536.260
80.000	13411.000	1536.510
64.000	13381.000	1536.640
64.000	13348.000	1536.900
64.000	13312.000	1537.150
64.000	13277.000	1537.280
64.000	13242.000	1537.410
64.000	13206.000	1537.540
64.000	13162.000	1537.790
64.000	13128.000	1538.050
63.000	13088.000	1538.050
65.000	13052.000	1538.050
63.000	13018.000	1538.170
81.000	12985.000	1538.300
64.000	12949.000	1538.430
63.000	12915.000	1538.560
64.000	12880.000	1538.560
64.000	12851.000	1538.690
64.000	12821.000	1538.690
64.000	12785.000	1538.690
64.000	12758.000	1538.690
64.000	12729.000	1538.810
64.000	12696.000	1538.810
64.000	12674.000	1538.810
63.000	12642.000	1538.940
81.000	12613.000	1538.940
64.000	12587.000	1538.940
64.000	12562.000	1538.940
64.000	12532.000	1539.070
64.000	12510.000	1539.200
64.000	12485.000	1538.940
63.000	12461.000	1539.070
65.000	12437.000	1539.200
64.000	12414.000	1539.200
63.000	12391.000	1539.200
65.000	12373.000	1539.200
64.000	12344.000	1539.320
80.000	12326.000	1539.200
63.000	12305.000	1539.320
64.000	12281.000	1539.320
65.000	12261.000	1539.450
63.000	12241.000	1539.320
64.000	12220.000	1539.320
64.000	12205.000	1539.450
64.000	12184.000	1539.320
64.000	12169.000	1539.450
64.000	12150.000	1539.450
64.000	12131.000	1539.450
64.000	12110.000	1539.450
80.000	12091.000	1539.450
63.000	12076.000	1539.450
65.000	12055.000	1539.450
63.000	12040.000	1539.580
65.000	12020.000	1539.580
63.000	12011.000	1539.580
64.000	11990.000	1539.580
65.000	11973.000	1539.580
64.000	11960.000	1539.580
64.000	11947.000	1539.710
64.000	11930.000	1539.580
64.000	11907.000	1539.710
79.000	11896.000	1539.710
65.000	11886.000	1539.710
63.000	11869.000	1539.710
64.000	11859.000	1539.580
64.000	11843.000	1539.840
65.000	11829.000	1539.710
63.000	11818.000	1539.710
64.000	11808.000	1539.710
64.000	11786.000	1539.840
64.000	11778.000	1539.710
64.000	11764.000	1539.840
64.000	11756.000	1539.840
80.000	11745.000	1539.840
64.000	11734.000	1539.840
64.000	11715.000	1539.710
64.000	11704.000	1539.840
64.000	11687.000	1539.840
64.000	11684.000	1539.840
64.000	11674.000	1539.840
64.000	11662.000	1539.840
63.000	11650.000	1539.840
64.000	11643.000	1539.960
64.000	11642.000	1539.960
65.000	11641.000	1539.840
79.000	11640.000	1539.960
65.000	11643.000	1539.840
63.000	11643.000	1539.840
64.000	11652.000	1539.840
65.000	11640.000	1539.960
63.000	11640.000	1539.960
64.000	11643.000	1539.960
64.000	11649.000	1539.960
64.000	11648.000	1539.960
64.000	11648.000	1539.960
64.000	11639.000	1539.960
64.000	11639.000	1540.090
80.000	11645.000	1539.960
64.000	11642.000	1539.960
64.000	11645.000	1539.960
64.000	11643.000	1540.090
64.000	11639.000	1540.090
64.000	11644.000	1540.090
63.000	11647.000	1540.090
64.000	11651.000	1540.090
65.000	11649.000	1539.960
63.000	11648.000	1540.090
64.000	11649.000	1540.090
65.000	11642.000	1540.090
79.000	11646.000	1540.090
64.000	11640.000	1540.090
65.000	11638.000	1540.090
63.000	11648.000	1540.090
64.000	11648.000	1540.220
64.000	11644.000	1540.090
65.000	11644.000	1539.960
63.000	11640.000	1540.090
64.000	11646.000	1540.220
64.000	11648.000	1540.090
64.000	11644.000	1540.220
64.000	11645.000	1540.090
80.000	11645.000	1540.090
64.000	11644.000	1539.960
64.000	11644.000	1540.090
64.000	11644.000	1540.090
64.000	11646.000	1540.090
63.000	11648.000	1540.090
65.000	11647.000	1540.220
64.000	11647.000	1540.090
64.000	11643.000	1540.090
63.000	11642.000	1540.090
65.000	11645.000	1540.090
63.000	11646.000	1540.090
80.000	11649.000	1540.090
64.000	11645.000	1540.090
65.000	11646.000	1540.220
64.000	11645.000	1540.220
63.000	11645.000	1540.090
64.000	11650.000	1540.090
64.000	11646.000	1540.090
64.000	11649.000	1539.960
64.000	11646.000	1540.090
64.000	11646.000	1540.220
64.000	11641.000	1540.090
64.000	11649.000	1540.090
80.000	11649.000	1540.090
64.000	11644.000	1540.090
64.000	11648.000	1540.090
64.000	11647.000	1540.090
64.000	11645.000	1540.090
64.000	11644.000	1540.090
64.000	11649.000	1540.090
64.000	11648.000	1540.220
64.000	11647.000	1540.090
64.000	11648.000	1540.090
64.000	11648.000	1540.090
63.000	11654.000	1540.090
81.000	11649.000	1540.090
64.000	11645.000	1540.220
63.000	11646.000	1540.090
65.000	11641.000	1540.220
64.000	11644.000	1540.090
63.000	11647.000	1540.090
64.000	11651.000	1540.090
64.000	11641.000	1540.090
64.000	11646.000	1540.220
64.000	11649.000	1540.350
64.000	11647.000	1540.090
64.000	11652.000	1540.220
80.000	11645.000	1540.090
64.000	11645.000	1540.090
64.000	11642.000	1540.220
64.000	11652.000	1540.090
64.000	11652.000	1540.090
64.000	11645.000	1540.090
63.000	11650.000	1540.220
64.000	11644.000	1540.090
65.000	11646.000	1540.090
64.000	11655.000	1540.220
64.000	11664.000	1540.090
63.000	11676.000	1540.220
81.000	11686.000	1540.090
64.000	11698.000	1540.220
64.000	11710.000	1540.090
63.000	11719.000	1540.090
64.000	11732.000	1540.090
64.000	11741.000	1540.220
64.000	11753.000	1540.220
64.000	11762.000	1540.090
64.000	11774.000	1540.090
65.000	11786.000	1540.090
63.000	11803.000	1540.090
64.000	11814.000	1540.090
79.000	11829.000	1540.090
65.000	11841.000	1540.220
64.000	11854.000	1540.090
64.000	11874.000	1540.090
64.000	11883.000	1540.220
64.000	11895.000	1540.090
64.000	11917.000	1540.090
64.000	11924.000	1540.090
63.000	11944.000	1540.090
64.000	11948.000	1540.090
65.000	11971.000	1540.220
63.000	11978.000	1540.090
81.000	11998.000	1540.220
64.000	12013.000	1540.090
63.000	12037.000	1540.090
64.000	12046.000	1540.220
64.000	12069.000	1540.090
64.000	12092.000	1540.220
64.000	12106.000	1540.220
64.000	12120.000	1540.220
64.000	12138.000	1540.090
64.000	12161.000	1540.090
64.000	12178.000	1540.220
64.000	12195.000	1540.220
80.000	12216.000	1540.350
64.000	12233.000	1540.220
64.000	12258.000	1540.090
64.000	12273.000	1540.090
64.000	12290.000	1540.090
63.000	12316.000	1540.090
64.000	12332.000	1540.220
64.000	12359.000	1540.220
65.000	12375.000	1540.220
64.000	12399.000	1540.090
63.000	12423.000	1540.090
65.000	12445.000	1540.090
80.000	12470.000	1540.220
63.000	12494.000	1540.090
64.000	12517.000	1539.960
64.000	12547.000	1540.090
64.000	12572.000	1540.090
64.000	12598.000	1540.220
64.000	12619.000	1540.090
64.000	12651.000	1540.220
64.000	12679.000	1540.220
64.000	12706.000	1540.220
63.000	12736.000	1540.220
64.000	12760.000	1540.090
81.000	12791.000	1540.220
64.000	12822.000	1540.220
64.000	12853.000	1540.220
64.000	12886.000	1540.220
64.000	12916.000	1540.220
64.000	12948.000	1540.090
64.000	12978.000	1540.220
64.000	13008.000	1540.220
63.000	13041.000	1540.220
64.000	13076.000	1540.350
64.000	13116.000	1540.220
65.000	13147.000	1540.480
79.000	13195.000	1540.350
64.000	13226.000	1540.480
64.000	13265.000	1540.480
64.000	13303.000	1540.600
64.000	13349.000	1540.730
64.000	13384.000	1540.860
64.000	13429.000	1540.990
64.000	13470.000	1541.240
64.000	13518.000	1541.240
64.000	13567.000	1541.500
63.000	13621.000	1541.750
64.000	13673.000	1542.010
81.000	13727.000	1542.260
64.000	13783.000	1542.520
64.000	13843.000	1542.780
64.000	13907.000	1543.160
63.000	13978.000	1543.540
64.000	14038.000	1543.800
64.000	14095.000	1544.180
65.000	14154.000	1544.570
64.000	14201.000	1545.080
64.000	14251.000	1545.590
63.000	14271.000	1545.970
65.000	14284.000	1546.480
79.000	14286.000	1546.990
64.000	14287.000	1547.630
64.000	14273.000	1548.140
64.000	14268.000	1548.660
65.000	14259.000	1549.290
63.000	14256.000	1549.930
63.000	14246.000	1550.570
65.000	14241.000	1551.080
64.000	14239.000	1551.850
64.000	14238.000	1552.620
64.000	14235.000	1553.260
63.000	14242.000	1554.020
80.000	14242.000	1554.790
65.000	14253.000	1555.680
64.000	14255.000	1556.200
64.000	14262.000	1557.220
63.000	14273.000	1557.990
65.000	14289.000	1558.750
64.000	14297.000	1559.900
64.000	14318.000	1560.800
63.000	14336.000	1561.690
64.000	14372.000	1562.590
65.000	14399.000	1563.740
63.000	14459.000	1564.760
80.000	14531.000	1565.780
65.000	14626.000	1566.930
63.000	14729.000	1568.080
64.000	14840.000	1569.230
64.000	14966.000	1570.510
65.000	15094.000	1571.790
63.000	15236.000	1573.070
64.000	15359.000	1574.350
64.000	15460.000	1575.620
64.000	15541.000	1577.030
64.000	15595.000	1578.180
64.000	15624.000	1579.590
80.000	15642.000	1581.120
64.000	15632.000	1582.400
64.000	15628.000	1583.930
64.000	15635.000	1582.400
64.000	15621.000	1583.420
64.000	15634.000	1584.950
64.000	15584.000	1586.360
64.000	15524.000	1587.890
64.000	15482.000	1589.430
63.000	15433.000	1591.090
64.000	15382.000	1592.490
64.000	15348.000	1593.770
80.000	15310.000	1595.430
64.000	15284.000	1596.840
64.000	15278.000	1598.120
65.000	15269.000	1599.400
63.000	15297.000	1600.800
64.000	15313.000	1602.720
64.000	15358.000	1604.760
64.000	15406.000	1606.300
64.000	15450.000	1607.450
64.000	15493.000	1608.220
64.000	15503.000	1608.980
64.000	15537.000	1609.880
79.000	15582.000	1610.640
65.000	15625.000	1611.280
64.000	15563.000	1610.010
64.000	15488.000	1608.340
64.000	15427.000	1606.940
63.000	15369.000	1605.790
65.000	15322.000	1604.250
63.000	15268.000	1602.590
65.000	15231.000	1600.550
63.000	15206.000	1598.630
64.000	15189.000	1596.840
65.000	15196.000	1594.800
79.000	15220.000	1592.750
64.000	15276.000	1590.580
64.000	15323.000	1585.470
64.000	15390.000	1582.530
64.000	15464.000	1579.710
64.000	15521.000	1576.770
64.000	15588.000	1573.710
64.000	15646.000	1570.890
64.000	15691.000	1567.830
64.000	15724.000	1565.140
64.000	15695.000	1562.080
64.000	15634.000	1559.010
80.000	15549.000	1556.320
64.000	15426.000	1553.260
64.000	15284.000	1550.320
63.000	15131.000	1547.500
64.000	14977.000	1544.820
65.000	14825.000	1542.390
63.000	14675.000	1539.960
64.000	14510.000	1537.790
65.000	14375.000	1535.750
64.000	14246.000	1533.960
63.000	14140.000	1532.300
64.000	14033.000	1531.140
80.000	13943.000	1529.990
64.000	13867.000	1528.970
64.000	13833.000	1528.210
64.000	13773.000	1527.570
64.000	13710.000	1527.180
64.000	13666.000	1526.800
64.000	13619.000	1526.670
64.000	13587.000	1526.420
63.000	13572.000	1526.540
64.000	13583.000	1526.800
65.000	13592.000	1526.800
63.000	13608.000	1527.050
81.000	13644.000	1527.180
64.000	13662.000	1527.440
63.000	13689.000	1527.690
65.000	13726.000	1528.080
64.000	13759.000	1528.330
63.000	13787.000	1528.590
64.000	13801.000	1528.840
64.000	13823.000	1529.230
64.000	13828.000	1529.480
64.000	13843.000	1529.870
64.000	13854.000	1529.990
64.000	13853.000	1530.380
80.000	13864.000	1530.890
64.000	13865.000	1531.020
64.000	13875.000	1531.400
64.000	13894.000	1531.660
64.000	13889.000	1532.040
64.000	13895.000	1532.420
64.000	13896.000	1532.810
64.000	13878.000	1533.060
64.000	13859.000	1533.320
64.000	13830.000	1533.450
64.000	13796.000	1533.960
79.000	13769.000	1534.210
65.000	13729.000	1534.470
64.000	13702.000	1534.720
63.000	13671.000	1534.980
65.000	13643.000	1535.230
64.000	13601.000	1535.490
63.000	13569.000	1535.750
64.000	13540.000	1536.000
64.000	13499.000	1536.260
64.000	13463.000	1536.510
64.000	13426.000	1536.510
64.000	13386.000	1537.020
80.000	13353.000	1537.020
64.000	13319.000	1537.410
64.000	13289.000	1537.660
64.000	13252.000	1537.790
64.000	13209.000	1537.790
64.000	13173.000	1538.050
64.000	13136.000	1538.170
64.000	13098.000	1538.300
64.000	13060.000	1538.300
64.000	13035.000	1538.430
64.000	12997.000	1538.430
64.000	12963.000	1538.690
80.000	12923.000	1538.690
64.000	12891.000	1538.810
64.000	12858.000	1538.810
64.000	12827.000	1538.810
63.000	12795.000	1538.940
64.000	12763.000	1538.940
64.000	12731.000	1538.940
64.000	12706.000	1539.070
64.000	12670.000	1539.070
64.000	12647.000	1539.200
64.000	12615.000	1539.200
64.000	12591.000	1539.320
80.000	12567.000	1539.200
64.000	12543.000	1539.200
64.000	12515.000	1539.320
64.000	12484.000	1539.320
64.000	12462.000	1539.320
64.000	12439.000	1539.320
65.000	12418.000	1539.320
62.000	12391.000	1539.320
65.000	12369.000	1539.450
64.000	12347.000	1539.450
64.000	12324.000	1539.450
64.000	12308.000	1539.580
80.000	12283.000	1539.710
63.000	12261.000	1539.580
64.000	12240.000	1539.450
64.000	12220.000	1539.580
64.000	12196.000	1539.710
65.000	12181.000	1539.710
64.000	12160.000	1539.710
64.000	12146.000	1539.710
64.000	12121.000	1539.580
63.000	12102.000	1539.710
64.000	12090.000	1539.710
64.000	12073.000	1539.840
80.000	12055.000	1539.840
64.000	12034.000	1539.710
64.000	12015.000	1539.840
64.000	12001.000	1539.840
64.000	11986.000	1539.840
64.000	11968.000	1539.840
64.000	11957.000	1539.840
64.000	11938.000	1539.840
64.000	11921.000	1539.840
64.000	11906.000	1539.960
64.000	11892.000	1539.960
64.000	11876.000	1539.960
79.000	11868.000	1539.960
64.000	11848.000	1539.960
65.000	11839.000	1539.840
64.000	11818.000	1539.960
64.000	11808.000	1539.840
64.000	11794.000	1539.960
63.000	11788.000	1539.960
64.000	11777.000	1539.960
65.000	11760.000	1539.960
63.000	11746.000	1539.960
64.000	11735.000	1539.960
64.000	11722.000	1539.960
64.000	11714.000	1540.090
